,time,EEG Fp1-Ref,EEG Fp2-Ref,EEG F3-Ref,EEG F4-Ref,EEG F7-Ref,EEG F8-Ref,EEG Fz-Ref,EEG C3-Ref,EEG C4-Ref,EEG Cz-Ref,EEG T3-Ref,EEG T5-Ref,EEG T4-Ref,EEG T6-Ref,EEG P3-Ref,EEG P4-Ref,EEG Pz-Ref,EEG O1-Ref,EEG O2-Ref,ECG EKG,Resp Effort
0,0.1,1.0090930999997554e-05,1.4615373980856903e-06,2.1886973362035437e-06,-4.487660502710372e-06,1.5081307389470077e-05,-9.963882691544824e-06,4.765932338116819e-06,-5.292040965230122e-06,-4.767645629632073e-05,3.6436244720875296e-07,-2.1259994647523895e-06,-1.5427234792978957e-05,-3.0279315652943602e-05,4.5264879865061146e-05,-4.288174148005474e-06,-2.00926414755935e-05,1.7414617990425634e-06,4.872110559169426e-06,1.9682363635083046e-05,1.853370833460484e-05,-7.602604131736674e-05
1,0.30000000000000004,1.0515076086234439e-05,4.9609157707081e-07,2.195447823222337e-06,-1.3377697001467628e-06,1.1856845786381107e-05,-1.799342927874e-05,4.911793328653735e-06,-4.241110004865104e-06,-4.8102872574451795e-05,3.2878044086670287e-07,-2.8238862629008963e-06,-5.930711135127929e-07,-1.08712238532671e-05,4.7461311692718014e-05,4.3180028256548416e-06,-1.5359099036153752e-05,7.601893949974682e-06,2.2650054376802965e-05,2.8922581679200106e-05,-2.0637601352867664e-05,-2.274703391324494e-05
2,0.5000000000000001,-1.4165043524781078e-06,-7.341286940411807e-06,-3.338942113568444e-06,-4.4969976249419745e-06,2.509410920958846e-05,-1.4171518030155971e-05,-2.6060450532189034e-05,-2.7156261159452975e-06,-4.4261277662784924e-05,2.0739785185587958e-07,3.293804894809869e-05,3.6983041711621524e-05,1.1046534989471017e-05,5.439980292941777e-05,1.3182212433958747e-05,-1.010356099303649e-05,9.524331711065019e-06,3.4801435719940516e-05,4.2976717120345145e-05,2.909973464694563e-05,4.9587147305664314e-05
3,0.7000000000000001,-1.5697001919075774e-05,-2.14183866551535e-05,-4.677431203201307e-06,-1.214410073262384e-05,2.9467163024491907e-05,-6.665481174567764e-06,-3.869408162085608e-05,7.29014923551039e-07,-2.830766873414618e-05,1.9755602031446145e-07,4.186459015616492e-05,4.119534561134848e-05,2.705591429684447e-05,5.2769339504056164e-05,7.365689992980649e-06,-1.559530299314779e-05,8.930454492413409e-07,1.771273555352488e-05,2.6967337812971706e-05,-3.2559339960038796e-05,0.00029503914533811804
4,0.9000000000000001,-3.4992740350878417e-07,-1.0311375051353355e-05,6.117291515149997e-06,7.989889231895972e-06,2.332138084752239e-05,-4.545575896011794e-06,-8.741224388514805e-06,2.4750567808605746e-06,-3.3422227240822497e-06,1.1983078660274925e-07,1.657102000605665e-05,1.3894041826790927e-05,2.1857408405736446e-05,4.106601385070805e-05,-3.4612710325351734e-06,-2.6286371036995567e-05,-9.095151792023494e-06,-6.035043700167443e-08,6.1365966462504725e-06,2.7420503684523026e-05,0.00039103908300565046
5,1.1000000000000003,-1.8521607571462773e-05,-2.5341996829665514e-05,-9.942811077859994e-06,-8.236893610680853e-06,7.218062519859376e-06,-1.8022954773364257e-05,-2.5479782471245374e-05,-7.4889144135330786e-06,8.425327188939997e-06,1.1882136798311664e-07,5.420287958293667e-06,1.5098002258368751e-06,1.9917305818802542e-05,2.2098911810483553e-05,-1.0165892592798805e-05,-2.7090562233524138e-05,-1.3859860031344396e-05,-5.130155454106539e-06,-5.976552966668496e-06,-3.2805385748574246e-05,0.00010037755928040936
6,1.3000000000000003,-3.67356438597666e-06,-1.2678840246374226e-05,-1.762928151170753e-05,-1.2347498584479818e-05,9.005995249883665e-06,-6.1143386082483496e-06,-2.9957815822590613e-05,-6.695006669192019e-06,1.8742847254859977e-05,1.3194381003834077e-07,1.2394865910645301e-05,6.53569553298772e-06,2.6163588237089223e-05,5.974711135126888e-06,-3.3323808925408324e-06,-2.1319968339739316e-05,-9.98545901453947e-06,7.815046917719356e-07,-7.374093045549867e-06,3.127477941759903e-05,-0.0002752556251608954
7,1.5000000000000004,2.6842674613447076e-05,2.094741752013763e-05,-2.2366569809296156e-06,-5.349956358531545e-06,3.137647834352701e-05,6.050165176944429e-06,-2.265517681885838e-05,6.046884566430622e-06,2.1862707853489516e-05,3.680610513796577e-08,3.298069688477817e-05,2.236136065158804e-05,1.6249583264367393e-05,1.3664462179488235e-05,6.450399659628763e-06,-1.4680012659795907e-05,-7.495475634560691e-06,1.3608691800753531e-05,4.8560229499190315e-06,-2.7320204969490558e-05,-0.00045477391308687554
8,1.7000000000000004,5.825123967262605e-05,4.8947428255472125e-05,3.557894041171255e-05,2.8729025658885548e-05,2.873558687991316e-05,1.9510510115090588e-05,4.655586319090754e-05,7.621577613057518e-06,1.8716602370749528e-05,1.0561221027517494e-08,2.628825143661386e-05,-1.1737305028911895e-05,1.34282582224942e-05,-9.824709099362976e-06,-1.9131801127030695e-05,-2.9744576139193216e-05,-2.4482476875048334e-05,-1.0785927979908144e-05,-1.6261266927450418e-05,5.303178834516066e-05,-0.0004987636194665006
9,1.9000000000000004,2.139086773747499e-05,1.4270491883250172e-05,4.115992924400862e-06,1.1123755513872914e-05,-1.462285433045921e-05,-2.0636402668256852e-05,3.2990034007009774e-05,-1.3718730690587012e-05,1.2426851863154909e-05,9.73081336521963e-08,-1.3570724685483375e-05,-5.224211980158283e-05,-1.967436363508323e-05,-3.767639838627522e-05,-3.304960196586161e-05,-3.3381006716419756e-05,-2.9088832568414377e-05,-2.6279935993295416e-05,-2.4336552795847694e-05,-6.819781065612456e-05,-0.0002296047942653374
10,2.1000000000000005,8.871490218817617e-06,1.4661767775685267e-05,-2.2238539283605012e-05,-8.578077104116682e-06,-1.1924299828198837e-05,9.320933859209044e-06,-9.693484678810734e-06,-2.1743167096020297e-05,2.7278995811783275e-05,2.106784623696856e-07,-1.3968120178299997e-05,-2.567661910207374e-05,1.3720232558222937e-05,-3.3914318817893404e-06,-3.0174422832154524e-06,7.0999605413623595e-06,6.624272016860484e-06,1.02755915187266e-05,1.2926324813881878e-05,4.020788184669287e-05,-3.52593691285539e-06
11,2.3000000000000007,4.401339004270787e-05,4.214344204983841e-05,4.731273034741686e-07,1.1446769472155357e-05,1.1751779534286598e-06,1.8034235383877873e-05,1.5271961331253192e-05,-1.822635262522023e-05,2.917190807824936e-05,1.647499151764011e-07,-4.050834595064354e-06,-1.9810887503388548e-05,6.092813113623906e-06,-6.393190501921862e-06,-6.855756584368514e-06,3.4289573764134064e-06,1.8378612772174785e-06,-2.1119937814049873e-06,-1.2636192309694748e-05,-5.3184538260337334e-05,-8.598408217737009e-05
12,2.5000000000000004,3.668441943921247e-06,6.365103786269807e-06,-1.3184054265500355e-05,-2.492544601006487e-06,-2.2179488294356503e-05,1.5294838889197115e-06,1.0561221027517631e-08,-2.20712281474009e-05,1.3241263423207258e-05,1.3194381003834077e-07,-9.027520744508107e-06,-1.748821525961387e-05,-8.368118031233094e-06,-1.5411588804374654e-05,-1.2895360540285423e-05,-7.023067720572621e-06,-8.97503097628721e-06,-1.7911414015894852e-05,-2.3537661047072196e-05,4.769751564971205e-05,-0.00044318023553108503
13,2.7000000000000006,-5.5730378734703535e-06,-1.001170389864992e-05,-2.5174685693461415e-05,-1.6956756356377294e-05,-1.6330159748240343e-05,-1.4502859692050381e-05,-1.4302742450708211e-05,-2.894738778433835e-05,3.2616462402092975e-06,7.945404181744424e-08,-6.731093384843883e-06,-2.0998468509386327e-05,-2.3412997847547573e-05,-1.2468881173490638e-05,-2.188423334811396e-05,-8.771633124431238e-06,-1.83739800983415e-05,-2.7415342674390932e-05,-1.1576555113735399e-05,-4.199765640825876e-05,-0.00040279920071664645
14,2.900000000000001,-1.3442023811480215e-05,-2.0945284765864437e-05,-2.189123618978766e-05,-1.8393789938751792e-05,-1.007006091259743e-05,-1.2730951482612763e-05,-1.9040511830617667e-05,-1.9117732355019568e-05,-4.181995926952868e-06,1.3652565550142394e-08,-4.552010939711953e-06,-3.1045085853262405e-05,-2.4388033145448955e-05,8.051629406695753e-07,-2.3969755304938697e-05,-6.707750579264879e-06,-2.2007066976390503e-05,-2.3120329536517834e-05,-1.7109391460921994e-06,4.015223764528561e-05,-0.00013500321682931472
15,3.1000000000000005,9.012556470911278e-06,-1.2810064666926466e-05,5.095507517426872e-06,-1.354172752715793e-06,-1.915157150576625e-06,-1.5293486825877636e-05,1.0889065684808326e-05,-5.205609495924077e-06,-1.0162611982284995e-05,7.280610513711454e-09,-5.6091245891222204e-06,-3.884498970449116e-05,-3.335652831489367e-05,-7.452827697881212e-06,-3.883842848346355e-05,-2.524029790373753e-05,-3.626314923012582e-05,-4.5727710562456216e-05,-3.324498755742426e-05,-3.0463029841716744e-05,0.00029837552623065874
16,3.3000000000000007,1.8805092138969572e-06,-1.6477787221361613e-05,2.8942178626630218e-06,8.60239344103281e-07,-1.6136603727925785e-05,-9.939530467346187e-06,1.4143431314503917e-05,-3.3126972294579963e-06,-2.1562733517760967e-05,-1.5683663082930787e-08,-1.2094891574916752e-05,-2.319647755363637e-05,-3.69127101118594e-05,-2.007005573397922e-05,-2.7809015936047665e-05,-2.244521774597479e-05,-2.4492318706589757e-05,-4.750580146093909e-05,-4.7525485124021924e-05,3.4844083656619996e-05,0.0006936595676496618
17,3.500000000000001,-2.4827027694650695e-06,-1.7773628374314995e-05,4.12116619482648e-06,-5.290905369283034e-06,-1.2150661953651455e-05,-4.661028150632276e-06,7.929955001355284e-06,-4.4216302987771525e-07,-3.904838755634714e-05,-1.3706625209375409e-07,9.980249856831339e-07,2.0068213902437617e-05,-3.9707790269622146e-05,1.937600508402454e-05,2.487422158951074e-06,4.888829055057091e-06,-8.489587335896638e-07,1.5786930466268016e-06,-1.655988919985948e-06,-3.613848603060118e-05,0.0007603018896271174
18,3.7000000000000006,-2.219917195743934e-05,-2.111657048788335e-05,-2.2806084902493454e-05,-1.695347574586349e-05,-2.5312471335041263e-05,-5.21217071695169e-06,-1.4470053586912321e-05,-2.043420350101169e-05,-5.004827460913877e-05,-1.8299479928703857e-07,-1.4292900619166793e-05,2.035034640662493e-05,-5.1271942330788424e-05,2.486774708413584e-05,-2.9125494624263774e-07,1.3654620347946818e-05,1.3260860370637373e-06,1.3018181908268447e-05,8.307225210442982e-06,2.0773545162905913e-05,0.0005387852259033926
19,3.900000000000001,-1.4616419286759052e-05,-1.2827477138115132e-05,-1.7817246267939375e-06,-1.0687825107812598e-05,-2.8187926450392252e-05,-4.426282775127955e-08,1.5444887358529005e-05,-3.4934462510359625e-06,-4.70522570574054e-05,-1.1183078660293846e-07,-2.4352640405098095e-05,-2.144400065262668e-05,-4.870928081019609e-05,1.0711912717062802e-05,-2.6074014594890354e-05,-6.649835185963458e-06,-2.4143501484842956e-05,-2.867698977160426e-05,-1.4323624798401862e-05,-1.7241917116423515e-05,0.0002922515096426751
20,4.1000000000000005,-4.139411078937117e-06,-2.922304578315078e-06,7.572368455350429e-06,-5.687859241453564e-06,-2.6959424528624614e-06,5.48590016856979e-06,1.2345656752938208e-05,4.2063753525327184e-07,-3.0266193210888377e-05,-2.5516823059077135e-07,3.6421970598107982e-06,-2.5689741544128955e-05,-2.7382536569252876e-05,1.746012854396182e-05,-2.5784879249029333e-05,-9.87719886758387e-06,-2.334410502675764e-05,-3.1342233459416755e-05,-1.9538596830742642e-05,1.6420175011085304e-05,0.0001463454737998595
21,4.300000000000001,-3.3159778399718016e-06,-5.513986884221846e-06,7.342725719384006e-06,-8.151597737321898e-06,1.4822517690861763e-05,6.9720167313239225e-06,7.569087844836621e-06,-1.4263461840195258e-06,-2.27240696396483e-05,-2.3220395699412912e-07,2.3706410962248508e-05,-1.1934141659740255e-05,-1.2452478120921607e-05,1.609867518073231e-05,-1.6474506610847808e-05,-1.1251774672868601e-05,-1.7796592647911642e-05,-1.998804047113407e-05,-2.1434789707722536e-05,-6.48504759630843e-06,3.819350027556325e-06
22,4.500000000000001,6.404384396782763e-07,-4.943160654819596e-06,9.032240133994115e-06,-2.7189067264591033e-06,3.2360661497668824e-05,-1.3485870432770512e-05,2.197424861095892e-05,-2.1579223285982715e-06,-1.6878021704045953e-05,-5.833159976240923e-08,2.797120463019635e-05,-1.7097822608470954e-05,-1.2846151382578333e-05,-1.5185226678922036e-05,-1.4922777837817555e-05,-1.7353710228547826e-05,-1.9456581567897496e-05,-3.1624365963604074e-05,-3.9809489195550135e-05,9.37670423794375e-06,-0.00012544982665845666
23,4.7,-8.673214809017057e-06,-1.3915630410079102e-05,-1.6592695304997543e-06,3.6814776703237537e-07,1.660708309471953e-06,-1.535253781512614e-05,8.366276199691488e-06,-6.596588353777837e-06,-7.931796832896892e-06,-7.801526284524545e-08,-1.4591436175923142e-05,-4.803069914314805e-05,-9.640994910589837e-06,-3.502635906642093e-05,-2.9409953866785006e-05,-2.5880016953929708e-05,-2.5965312827288667e-05,-4.9152667938869714e-05,-5.2935211861288076e-05,-5.661614357343118e-06,-0.00025340675913894725
24,4.9,-1.2787100393329824e-05,-2.6762587897796244e-06,-4.588854719328544e-06,4.573890445731712e-06,6.115777387220549e-06,2.694100621320854e-06,-1.10812696418034e-06,1.1850197849700779e-06,6.830950479230264e-06,-2.2244884110542863e-08,-1.0418499602361867e-05,-3.288083979039179e-05,1.228004454266209e-05,-1.019541808742306e-05,-1.290520237182684e-05,-1.4351951608415304e-05,-9.755816278573049e-06,-2.7100404065065554e-05,-2.5991557711399113e-05,3.366625776651092e-06,-8.57249139467794e-05
25,5.1000000000000005,-2.538136415583119e-05,4.88226783402948e-06,-3.876962237832634e-06,1.3529957148422188e-05,-1.3118442055224235e-05,2.3644079362486187e-05,8.11694980064223e-06,6.466802712197794e-06,1.8778933970511846e-05,-5.505098924860322e-08,-1.8603622834307927e-05,-1.5185226678922036e-05,2.7249470317159027e-05,9.186428828142997e-06,-4.995650423040491e-06,-6.232440586745367e-06,-9.80183154141905e-07,-1.4050135441145149e-05,-5.805961219950581e-06,-3.929452006053532e-06,0.00015970740042259152
26,5.300000000000001,-1.1209126736189123e-05,4.9249157707089576e-06,-3.834314301153155e-06,2.1928320063765636e-05,-2.0526060595398263e-05,1.7148470545150247e-05,9.455438890275092e-06,1.2014228375391079e-06,1.35922887481845e-05,-6.161221027621528e-08,-2.36459211940278e-05,9.881831541417158e-07,2.0081336344492835e-05,1.955971927279768e-05,9.947443751693277e-07,-3.1519473142815e-06,3.6061103441589312e-06,2.0411724134207352e-07,9.412790953595613e-06,2.556314979741001e-06,-3.3062227240831346e-07
27,5.500000000000001,3.809508196014906e-06,1.373335500027816e-05,1.716815420823308e-05,2.570102215464258e-05,1.2913202371826651e-05,2.4067278118767174e-05,8.858367776762394e-06,1.3339681738621436e-05,1.1473014356265803e-05,-3.864793667957304e-08,7.536281739698562e-06,4.1342973084469744e-05,3.0746601124876256e-05,4.5607766752417586e-05,1.5826384508086413e-05,-2.1677641601396895e-06,1.0108280382522491e-05,2.2292467830798104e-05,2.3358666247785066e-05,4.1735692473946515e-07,-0.0003371377812828187
28,5.700000000000001,-3.1814728089057548e-06,4.403298699013798e-06,1.4494456639481162e-05,1.1400840924962073e-05,1.5002951269121096e-05,1.9792642619277906e-05,-2.7615546631385817e-06,1.486844623805505e-05,7.805291801830656e-06,1.7122442055129564e-08,8.021812095741855e-06,3.6759960196682715e-05,3.17471873315871e-05,3.516558348697299e-05,1.0770963706311313e-05,-4.086921310716221e-06,5.820522440978004e-06,6.985139173379147e-06,2.2216927073327846e-06,3.1271412091432515e-06,-0.0005142120143760133
29,5.9,-1.0776086148366726e-05,1.5098002258368755e-06,6.867037194882131e-06,-3.522656302341582e-06,1.4277936345569962e-05,2.862404612244375e-05,-1.6392491348002658e-05,1.2102891574916562e-05,1.450429847102258e-05,5.648976822080196e-08,1.2539212773252764e-05,1.7896449742298022e-05,4.2133600218297005e-05,1.476018609109945e-05,1.3579166306129277e-05,2.5628762007686126e-06,1.0062351835329208e-05,5.928782587933604e-06,-1.5969379307374392e-06,8.766423966723096e-07,-0.0004562009786603811
30,6.1000000000000005,-2.9354270203703013e-06,8.162878347835514e-06,-2.5188762007696534e-07,-4.46747213031772e-06,-2.9452688519117198e-06,2.9066928541807567e-05,-1.5057282868883602e-05,6.38806805986645e-06,9.445597058733673e-06,-1.0426014695569373e-07,-1.705189406127767e-05,-3.3619063871650862e-06,2.6727853245463863e-05,-8.476378178188695e-06,1.162392243990088e-05,-2.4761415484374568e-06,9.130658449408294e-06,4.5246812880246215e-06,1.3982594683674704e-06,-8.391169020482456e-07,-0.0002549027175332428
31,6.300000000000001,1.2923044203368069e-05,2.5484501860731377e-05,3.412554323844376e-06,1.703036856665323e-05,4.796971960670522e-06,3.401408919662707e-05,4.272074278461557e-06,7.979077443409658e-07,1.6767919725548742e-05,-1.8299479928703857e-07,-1.1921019217685032e-05,4.570609835217906e-06,1.7132067492581214e-05,-1.1009009494846955e-05,1.3382329675300915e-05,-4.585660824467456e-07,1.1368034819824013e-05,3.1051697902660214e-05,2.2928906270476478e-05,-3.188034029933365e-06,-8.734553554059959e-05
32,6.500000000000001,1.4970145163983035e-05,2.4674191063821287e-05,3.5830593549095714e-07,1.8936403275174532e-05,6.860475973854519e-06,1.8014551720795037e-05,5.12175240153732e-06,-6.973858562865532e-06,9.484964384899347e-06,-9.11377049004696e-08,-1.1465014356265992e-05,1.6180690443577465e-05,1.808335782593224e-06,1.765687845913746e-06,1.3697268284626295e-05,6.181389597496669e-06,1.282134527744008e-05,4.482698145013176e-05,4.2323875628097754e-05,2.9106209152320526e-06,0.0001836328928997789
33,6.700000000000001,7.62813883408513e-06,1.3615253021781145e-05,1.6246215938200867e-06,7.526439908157143e-06,-1.137652458804595e-06,6.447119049114958e-06,4.048992763522746e-06,-5.6944204624811765e-06,1.3116600223682623e-05,-2.55254946243489e-08,-1.4538946407702246e-05,1.9461214241730786e-06,-6.088093724137901e-06,-3.401273713330758e-06,6.620991406346678e-06,3.6061103441589312e-06,9.01911769193889e-06,3.4985149908713655e-05,3.148473849048262e-05,-5.2318543800345275e-06,0.00024119448497501956
34,6.900000000000001,3.877896307495016e-06,1.1117320470172755e-05,3.35404750558042e-07,2.710543135564621e-07,-1.5243228787876178e-06,3.0188179735239247e-06,6.175206908451418e-06,-8.744441910364883e-06,5.123077263475587e-06,1.6870087400221393e-08,-1.9555315326630314e-05,-2.3886099736836633e-05,-1.769237017543457e-05,-2.0008985907491452e-05,-3.3969205955335934e-06,-1.347359177033273e-06,4.289739104305128e-06,1.5917863070490618e-05,1.4331624798401675e-05,4.540705808611288e-06,3.2150260804139145e-05
35,7.100000000000001,-1.3476115316881808e-06,-1.7183118481829912e-05,7.815133633372076e-06,-2.449559931710357e-05,2.9244081509553098e-05,-2.7579373200081235e-05,-1.8528255508143104e-06,2.0411724134207362e-07,6.994894289267848e-07,1.1226014695550458e-07,4.938038212764182e-06,-3.384870660761728e-06,-1.095004522125117e-06,3.97354739327048e-05,1.3894104915454655e-05,2.4887430747218683e-05,2.2026738379179812e-05,3.573640971637524e-05,4.2163125712921256e-05,-4.1066049737990535e-06,-0.00012135890534774053
36,7.300000000000001,1.1167917578481841e-05,-4.431385414665854e-06,3.3633451661372848e-06,-2.1326529560766934e-05,3.611696053597674e-05,-6.015920292834168e-06,1.7459174671781914e-07,3.127141209143251e-06,-5.392604295211022e-06,2.0083663082826754e-07,2.985099445460721e-05,5.025311123996694e-05,1.4553507628729668e-05,7.177063560002071e-05,2.6268567773531024e-05,3.1107468281394915e-05,2.7846541430671724e-05,4.478761412396609e-05,4.948544837973633e-05,3.199314640446984e-06,-0.00011583763785300499
37,7.500000000000001,4.898670886598509e-06,8.04468965368578e-07,-8.223771168625632e-06,-1.549688467773361e-05,2.003540779729955e-05,-8.325470094553617e-06,1.6751516672979716e-05,-5.773155114812521e-06,-1.131082566211711e-05,2.2708151493871583e-07,2.5241736682709725e-05,2.870934199580271e-05,2.890937252149216e-06,4.923940259120087e-05,-3.3586257766512805e-06,2.175764160139501e-06,-1.7740908984829654e-06,-3.142105482740081e-06,1.3300314412455767e-05,-9.529454153120433e-06,-5.853521400835499e-05
38,7.700000000000001,-3.0305560537054044e-05,-3.327451305204851e-05,-1.1232091009785764e-05,-4.254232446920328e-06,-2.8852250079437984e-05,-2.128716223460126e-05,1.541958880437446e-05,-3.4767277551482978e-06,-1.7288098018271706e-05,2.4348456750774596e-07,-9.522892932092819e-06,-6.41943538603231e-06,-1.5342695983584725e-05,-2.5187894851169357e-06,-2.2605967661151286e-05,-2.214996279973225e-05,-2.4538247253783045e-05,-3.992431056353334e-05,-3.120772842835071e-05,1.1141672694371395e-05,-3.300550298991642e-05
39,7.900000000000001,-1.9873849989788123e-05,-2.2113245197443112e-05,-1.8635104077507714e-05,-1.5276011266025247e-05,-2.145043569632684e-05,-2.1549571614031013e-06,-2.9529025802226915e-06,-1.1189151256776642e-06,-5.703883762040231e-06,3.0966457575741e-07,4.6732314641128046e-07,2.3086501752466617e-05,8.369556810205295e-06,1.087600633141683e-05,1.037407292280451e-05,5.718318805740203e-06,5.8502372015934415e-06,2.8708119684202905e-06,1.4872775728863225e-06,-1.2898262618816865e-05,4.970184249632008e-05
40,8.100000000000001,-1.3856579420830591e-05,-1.6822251325311246e-05,-6.448960880656565e-06,-1.4276497566597763e-05,3.44207981846863e-06,1.3057549234434118e-05,-3.4340798184688197e-06,1.7588072354000255e-05,-9.683642847269315e-06,2.4676517802155197e-07,5.021702452431508e-05,7.837122395379846e-05,2.7813735325533664e-05,2.4887430747218683e-05,5.2096814348725935e-05,3.38106913447711e-05,3.6385970598108834e-05,4.460061932467915e-05,2.1377177497446224e-05,1.5859190613224472e-05,8.430584837327358e-05
41,8.3,-1.4227288408890675e-05,-2.0726177836740428e-05,-5.02189530715094e-06,-1.4112467040907462e-05,1.476018609109945e-05,1.1771549913022152e-05,-7.134608478042027e-06,8.310505820956787e-06,-3.391431881789341e-06,2.1723968339729765e-07,6.018679987577162e-05,7.406706295968496e-05,1.8778933970511843e-05,1.9428494852245438e-05,4.929517296993557e-05,3.7570270993592815e-05,3.6812449964903614e-05,4.38657625695866e-05,1.6958195135349495e-05,-2.0693371731602365e-05,7.073396267765801e-05
42,8.500000000000002,-2.3317946858299914e-06,-6.836072921285677e-06,1.729937862878532e-05,-4.1591814576726693e-07,9.914724362207937e-06,1.1276177725437442e-05,1.2109452795944176e-05,7.500195024046695e-06,-1.2747733067164151e-05,1.5490808363498302e-07,2.4109926055446654e-05,2.981818834946915e-05,9.022398302452695e-06,-1.7209363365940358e-05,9.563699037230691e-06,7.51331746610192e-06,4.321283436168649e-06,-1.3148054265501207e-06,-1.9049785864185545e-05,2.2495865682654085e-05,4.9672443179023266e-05
43,8.700000000000001,-3.166373328976975e-05,-1.0234785413588732e-05,-9.709887731379764e-06,-7.672628602306216e-06,-3.2864436737822755e-05,6.788302542550787e-06,-4.716798529366979e-06,-2.777957715707612e-06,-2.028657602789042e-05,2.0411724134207354e-07,-3.081405516669399e-05,-2.225494233617404e-05,-1.6759919725548935e-05,-4.208623289213153e-05,-1.406325788320037e-05,-1.644826172673736e-05,-1.0844978969156652e-05,-3.195242701498468e-05,-3.449818077369816e-05,-2.9826591402038366e-05,-8.292750705068276e-07
44,8.900000000000002,-2.0794061238910723e-05,-8.88601287176836e-06,-8.429124769057142e-06,-3.165259022327905e-06,-3.325230584241659e-05,-9.230287709726814e-06,7.668137046888073e-06,-5.308128574480516e-06,-3.0562457575750554e-05,2.0348635470480313e-07,-5.1032331585953135e-05,-2.6733606574156547e-05,-3.568153483922623e-05,-4.524400977766101e-05,-7.151768594575782e-06,-8.779834650715753e-06,2.3887909505567217e-07,-1.7743850525035837e-05,-1.8982596437316252e-05,3.709237436586049e-05,5.644315803188384e-06
45,9.100000000000001,-1.0825295306073818e-05,-1.8692286033833406e-06,1.1784585639424658e-06,-6.19315997623241e-07,-1.7593194796055665e-05,8.799316787513884e-06,5.312027811338069e-06,7.861062180565359e-06,-1.365974279000223e-05,1.1226014695550458e-07,-2.5401047818914023e-05,2.8486260480863897e-05,6.07632334540216e-07,2.7338046801031788e-05,2.327337037442611e-05,2.179053442218578e-05,2.679674606625379e-05,2.232199332542236e-05,2.434941062295449e-05,-3.6692909207434405e-05,5.296945674539834e-05
46,9.3,2.3086375575139167e-05,2.918831113081839e-05,2.3758900730469407e-05,1.5216190952518491e-05,2.3286492816481332e-05,4.568650140474894e-05,1.6948353303808072e-05,1.907090830624058e-05,-6.754057658440526e-06,2.3683663082741623e-08,2.6406353415110878e-05,6.491415962616611e-05,5.189013588635615e-05,6.616407223192621e-05,2.491039502081532e-05,1.9084030748295805e-05,1.7679929448386824e-05,2.4339568791413077e-05,3.0185616727015424e-05,4.160214131506043e-05,0.0001720654602280988
47,9.500000000000002,0.00010950093711930393,0.00014685396842949942,4.853735194124638e-05,5.331392084934798e-05,5.521339433684167e-05,7.113091654982855e-05,4.43053643784366e-05,1.3720232558222937e-05,4.911793328653734e-06,3.3525494624159735e-08,2.1160657203535022e-05,3.634988388245696e-05,5.1621125824224066e-05,5.0748483427551654e-05,-7.5381235712401685e-06,-7.04611870982198e-07,-8.650250535420414e-06,-3.768702090877034e-06,1.2588421930959855e-05,-4.757141367121522e-05,0.00041656936182206264
48,9.700000000000001,3.634332266142935e-05,4.476464985036945e-05,2.7036230633761634e-05,2.937858654061914e-05,2.0540621816425685e-05,2.1813498695782426e-05,1.6948353303808075e-05,1.2617947425584112e-05,1.3194381003834087e-07,1.778723572316253e-07,-1.2390146521159292e-05,-4.7725689081016805e-06,-1.672391972554978e-06,1.4894691122165497e-05,-2.143807031823634e-05,-1.1586396945276815e-05,-1.5729808024213838e-05,-2.379354866714907e-05,-5.536951157818488e-06,5.179499818145577e-05,0.00037246155346394046
49,9.900000000000002,-1.0073278434447509e-05,-7.644049437637865e-06,1.1686821837636738e-05,8.749224388514616e-06,-8.445212378307538e-06,-8.30685893875414e-06,-2.0680840714509676e-06,1.1361852130778757e-05,-5.079684523124908e-06,2.646192698563041e-07,-3.567188227367599e-05,-1.1694909446887322e-05,-2.2502565341302668e-05,2.8392440095677807e-07,-1.8162128365546105e-05,-1.571359423763599e-05,-1.5182703132372953e-05,-2.2544393125353698e-05,-1.1698126968737401e-05,-3.530508478276699e-05,2.1053027943216693e-05
50,10.100000000000001,-3.3756762797578e-05,-2.754656709494318e-05,-3.7555796488218104e-06,-6.780302542550975e-06,-2.8087867829721168e-05,-2.7530164042374142e-05,-1.2734610625108928e-05,2.5563149797410007e-06,-9.598346973910358e-06,2.1723968339729773e-07,-4.7748566638960746e-05,-2.4577614579948712e-05,-3.936004555515871e-05,-1.2744452456650346e-05,-2.2386166756726285e-05,-2.2425534082891956e-05,-1.958124476742212e-05,-3.627299106166723e-05,-3.0873106155942497e-05,3.270512560161846e-05,-0.00016696595271067206
51,10.300000000000002,-1.7238888860564616e-05,-1.9611724134226278e-07,1.4245043524779184e-06,8.307225210442982e-06,-1.4076380325255598e-05,5.12175240153732e-06,4.7871301291291046e-06,6.9752973418377295e-06,-1.272157489870642e-06,1.778723572316253e-07,-2.1237953076894166e-05,1.2627789257125526e-05,-1.0851540190184262e-05,3.5240950813137805e-06,-1.6166215938202758e-06,-7.278955340649491e-06,-1.7970551720796075e-06,-7.151011530611055e-06,-1.3485870432770512e-05,-3.078452967206973e-05,-0.00021466274897089795
52,10.500000000000002,-9.276847143557367e-06,1.1581274503221402e-05,6.798144374092204e-06,1.6817128883255832e-05,-3.3783094397341166e-06,1.1883090670491558e-05,1.0577407685996755e-05,8.648408703878808e-06,7.716628602305177e-07,2.795712831596124e-07,-9.342459353833487e-06,2.4306762686275013e-05,7.979077443409656e-07,1.9001928769797935e-06,-3.542339965424418e-06,-1.1248494062354792e-05,-4.1492529104785345e-06,-1.0969642168681281e-05,-2.6687047140325996e-05,2.923095906749787e-05,-0.00017153584315640386
53,10.700000000000001,-4.942167800100181e-05,-2.9245923341094703e-05,-2.2671579871427405e-05,-1.382705392620634e-05,-4.067557037119494e-05,-1.6379368905947433e-05,-2.579800169108456e-05,-1.592008343401459e-05,-2.42987626862752e-05,4.5344364039133217e-07,-4.465823153495545e-05,-2.3061972522570323e-05,-2.9797065907414115e-05,-4.872946918258874e-05,-3.977340247989828e-05,-4.495020587068418e-05,-3.443912978444966e-05,-5.741324521263333e-05,-6.361687969424053e-05,-2.309477862770839e-05,-5.746245437034041e-05
54,10.900000000000002,-5.8139837352777625e-05,-3.785657960987964e-05,-3.335204901976904e-05,-2.1273471994572496e-05,-4.3760732204774596e-05,-1.5269576222325086e-05,-4.088426767080397e-05,-2.3117112014667757e-05,-2.0736145845609298e-05,3.8045005645914785e-07,-4.736757419871315e-05,-3.880253103380286e-05,-2.2782489742259536e-05,-5.531485316840826e-05,-3.506698816586115e-05,-3.0704028537154034e-05,-2.5292156785321157e-05,-5.8825169506844454e-05,-6.115787284815173e-05,1.4978346690267551e-05,0.00010804838372565258
55,11.100000000000001,-4.1991095187231136e-05,-2.444639015939648e-05,-2.624744533147598e-05,-9.329336911778264e-06,-3.2168947308895885e-05,-3.9917836058158445e-06,-3.160140169000743e-05,-1.6963317577404905e-05,-1.5129456300187332e-05,3.8127020908759934e-07,-3.4061859575361964e-05,-3.1106029502422725e-05,-6.570343469667388e-06,-6.0188641707313216e-05,-1.771457738506649e-05,-1.7458689764989616e-05,-1.0536601580858882e-05,-4.31622731406599e-05,-5.479203741210229e-05,-1.0631739285759259e-05,0.00011256502733919878
56,11.300000000000002,-3.38125331763127e-05,3.5765848495346775e-06,-1.8912000222605694e-05,1.119416246259229e-05,-2.2510829956250914e-05,3.7658847477465575e-05,-2.945260180346449e-05,-6.872159636937543e-06,6.8178280371750395e-06,2.336427359663279e-07,-1.4076380325255598e-05,-5.635369473232668e-06,3.585779230538605e-05,-2.8842408247896554e-05,1.3194381003834082e-07,2.897498473176829e-06,7.749521423095954e-06,-6.042165176944618e-06,-1.911211746394786e-05,-1.564131825599379e-06,3.280354391703264e-05
57,11.500000000000002,-1.0333203729002912e-05,1.813593430980586e-05,-1.1707779534287638e-05,1.8421347424506985e-05,-5.832292819713748e-07,4.553887393162767e-05,-2.3160390837984506e-05,-5.087507517427061e-06,4.2786354994891684e-06,2.1723968339729765e-07,4.058834595064165e-06,8.805878008541499e-06,5.0531963133640456e-05,-1.5224594005087709e-05,5.092140191260349e-07,2.2708151493871577e-07,3.533936912855199e-06,1.2512967889142314e-05,-3.542339965424418e-06,-3.6932480490594954e-06,-6.056591191640091e-05
58,11.700000000000001,-1.3026584960837664e-05,5.417007347779863e-06,-2.0355468848680346e-05,8.615602598740748e-06,-4.62494143498041e-06,2.159041718084361e-05,-3.2720089875215294e-05,-8.44685268356444e-06,5.417007347779863e-06,2.730100621320003e-07,3.451834934357332e-07,1.0098438550981073e-05,2.4083681171336208e-05,-2.0181596491448627e-05,6.5455373645291405e-06,2.3299528542883847e-06,6.893282078992579e-06,1.9530193778173423e-05,-5.89790502998987e-07,-7.04275138365546e-06,-0.00019298447469566772
59,11.900000000000002,-8.409819637956668e-06,3.311612461881113e-06,-8.56104316491038e-06,7.236989118977488e-06,3.06386327942503e-06,1.4595461590108152e-05,-3.039836396139653e-05,1.895902847846355e-06,1.8412049763950124e-06,2.0087609250300392e-08,-4.728974641466297e-06,7.665526784686269e-07,1.5158527913871978e-05,-5.002463998723012e-06,1.0512426362357907e-05,6.831581365867534e-06,9.582562547685076e-06,2.1001547593615435e-05,7.6488319157876e-06,1.4791730422962971e-05,-0.00019240058911287392
60,12.100000000000001,-1.657292492626199e-05,-7.006664668003592e-06,-1.6838654377880276e-05,-1.4263461840195258e-06,-1.2603386204556687e-05,-2.046381571128866e-06,-3.806420440220532e-05,2.536631316658164e-06,1.5823103897572604e-05,7.289282078983215e-08,-2.564053238642187e-05,-1.8160740414944107e-05,6.388068059866449e-06,-1.4394599545094782e-05,2.149519276029052e-06,7.486985866338753e-07,1.9297183716040477e-06,4.6328547193275024e-07,-6.052007008486037e-06,-1.8800459465136286e-05,-3.380597195528509e-05
61,12.300000000000002,-3.0295718705512635e-05,-2.0863963478320286e-05,-2.4131451550071094e-05,-1.4440528092288063e-05,-1.6244863874881384e-05,-1.568387947702055e-05,-4.727943933548648e-05,2.5399119271719708e-06,7.198378856776541e-06,5.648976822080198e-08,-3.599413916799372e-05,-5.018614696637134e-06,5.157752401536467e-07,1.3746477442333385e-05,1.558033871955096e-05,1.4838920743430795e-05,1.4022048725493093e-05,1.3684145842571069e-05,1.8618184055335348e-05,2.227934538874288e-05,5.0633662059568445e-05
62,12.500000000000002,-9.900163141180513e-06,-6.222598755203949e-06,-6.786863763578587e-06,-7.134608478042026e-06,-8.427169020481604e-06,-1.2596824983529074e-05,-2.449887992761737e-05,1.4665048386199074e-05,9.304530806640015e-06,7.289282078983214e-08,-2.4925359294412157e-05,2.6478526846414608e-05,-7.885868285703608e-06,4.1795697335374986e-05,2.399838529797724e-05,2.0783386994447332e-05,1.7479812207044652e-05,3.303646726351287e-05,4.1008350812061534e-05,-2.926888761469134e-05,0.00012161623174678964
63,12.700000000000003,-1.169793770274622e-05,-1.1615922439901071e-05,-1.1373157261879425e-05,-5.796119388409165e-06,-5.986394798209915e-06,-2.9150785636194325e-05,-2.952149462425441e-05,3.5929879021037074e-06,3.091054493491384e-06,3.6806105137965755e-08,-2.9095015257459625e-05,1.1748585639425511e-05,-3.206724838296789e-05,1.3221579760124419e-05,6.719409721760859e-06,2.3299528542883842e-06,5.190558506674529e-07,1.3693987674112488e-05,1.973687224054321e-05,3.591684329463457e-05,-0.00014408369437687494
64,12.900000000000002,2.150991604592792e-05,1.2964178012118104e-05,7.584481478786019e-06,7.336732296329938e-06,8.630176080061693e-06,-1.4831993250714343e-05,5.840584636043203e-06,1.4418497888353807e-05,7.61343917543673e-06,2.330513110037939e-08,-1.7007038021367743e-05,1.5412712140028216e-05,-2.0858411675912302e-05,6.8605390625182455e-06,1.7539494082930435e-05,1.3556202032532636e-05,9.740221118338945e-06,2.084388902296156e-05,2.228533881179695e-05,-4.4323798528538414e-05,-0.00033450244162161274
65,13.100000000000001,2.313230412233245e-05,8.756668850834407e-06,7.178695193693705e-06,5.663053136315316e-06,2.359478348912638e-06,-2.1126412319424765e-05,-5.428691010862889e-06,1.097108094765348e-05,2.7564322210831688e-06,1.7122442055129554e-08,-1.4949022721928001e-05,2.3670324246596643e-05,-2.6004680153454337e-05,4.6821505926873115e-06,2.3342263195216036e-05,2.1806937474754812e-05,1.8982331822367816e-05,3.568391994815435e-05,3.0890947987483723e-05,4.368532899132726e-05,-0.00021006005242002815
66,13.300000000000002,3.372539547141214e-05,8.47125573613328e-06,1.1420524588044905e-05,8.271138494791113e-06,2.491039502081532e-05,-2.2153243410246053e-05,-7.96788354854876e-06,1.050851486520683e-05,1.158455511373521e-05,-6.489282079002131e-08,5.4760583370283704e-06,2.2499146293167883e-05,-2.1310126508197907e-05,1.6574363705234188e-05,2.485462464208062e-05,2.780389349399224e-05,2.4451109548882474e-05,4.1959727861065286e-05,3.7836000445211096e-05,-4.6715174327111844e-05,-3.977012186938446e-05
67,13.500000000000002,2.346036517371305e-05,2.5858404743652554e-06,1.7932536457949884e-05,5.420287958293669e-06,2.1393580550015254e-05,-1.606771090713586e-05,-9.29981141715401e-06,2.0304417859431648e-05,1.4451808702801683e-05,5.6489768220801985e-08,4.249110004864915e-06,2.058655036361897e-05,-8.059740642935328e-06,3.141584566969269e-05,2.6895164381667975e-05,2.964759660275124e-05,2.546809880816235e-05,3.7990189139359984e-05,4.166447291482274e-05,6.120378913505148e-05,0.0001897676345605962
68,13.700000000000003,7.319761445787364e-06,-6.5309761435017164e-06,7.2016594672903464e-06,-7.977725380090177e-06,1.4028609946520703e-05,-7.426582813770764e-06,-2.049325449026021e-05,1.682697071479725e-05,1.5321170488960282e-05,6.633159976222008e-08,1.4566630070784894e-05,8.668092366961645e-06,1.8083357825932245e-06,2.608485358475788e-05,2.4247711697026504e-05,2.4001665908491054e-05,2.2686141092454827e-05,2.3352105026757456e-05,2.8925862289713904e-05,-3.8608785747497124e-05,0.00013319678686052493
69,13.900000000000002,2.2407604642099953e-05,2.3092936796166775e-05,1.0596081930459961e-05,-2.9400324928223757e-06,1.2072924459646218e-05,3.845721088994227e-06,-9.368641149280208e-06,9.968665169694556e-06,1.9132167398719536e-05,-3.461026220104253e-08,1.024537204880135e-05,-2.666925613715497e-05,1.5062002258369607e-05,5.6507508468885434e-06,3.3598752896322977e-06,6.799406147366744e-06,3.408138117383483e-06,-7.0262852424226995e-06,-1.6331113620420222e-07,3.449905175469682e-05,8.688674251768302e-05
70,14.100000000000003,8.645464825981654e-05,9.428546555627154e-05,1.9553158051770067e-05,3.8095081960149054e-06,3.587747596846889e-05,-6.678603616622988e-06,1.797846500514317e-05,4.4032986990137985e-06,2.5320471335041077e-05,-1.5683663082930804e-08,3.4683247025790787e-06,-3.501979784539332e-05,1.7023807345625615e-05,-1.9374566305052346e-05,-1.0963080947653669e-05,-5.727226567619238e-06,-1.5988976254804512e-05,-2.449559931710356e-05,-3.167357512131117e-05,-2.8445454375726026e-05,-1.9144923569085916e-05
71,14.300000000000002,5.1955748096632276e-05,3.546739965424315e-05,2.1239391855866367e-05,7.04090955211385e-06,3.814437783350887e-05,-9.900249856833232e-07,1.5960889539152458e-05,1.2749171846136353e-05,3.3567926166749446e-05,-1.4034686260756012e-07,2.3158549006442894e-05,-1.2885605424396722e-06,3.0438223736578484e-05,-1.3469467380201477e-05,2.264340644012263e-06,7.103241151876165e-06,-6.153705934414023e-06,-5.343395137503932e-06,-1.948282645200794e-05,2.252867178779214e-05,-0.00017360590839061546
72,14.500000000000002,3.239674821332069e-05,1.8588658560711094e-05,1.1702657092232226e-05,6.893282078992579e-06,1.8293403614468547e-05,3.3469421135682544e-06,7.0802768782795225e-06,7.739679591554536e-06,2.8938984731769132e-05,-2.781325041874136e-07,1.5071844089911023e-05,1.6718710567841652e-05,2.3676885467624253e-05,-3.2037722888343645e-05,1.0751280043228476e-05,1.590511916041776e-05,1.834580666703673e-06,1.2243871111357504e-06,-2.1132973540452376e-05,-1.867251565509785e-05,-0.0003559980111266895
73,14.700000000000003,-2.935427020370302e-06,6.27980791291085e-06,-4.132849857909504e-06,3.884962237832445e-06,-1.9361443862997118e-05,1.3178931823444941e-05,-1.5280451099475127e-06,-5.117033012051316e-06,2.0963820572706655e-05,-2.453263990493532e-07,2.0642234026700954e-06,1.7716016164038686e-05,1.0620055622676234e-05,-2.3665604857110634e-05,8.451572073050445e-06,2.3358666247785073e-05,-5.274589032366722e-07,-5.60912458912222e-06,-2.5578200786659554e-05,1.7168154208233082e-05,-0.0004946169277770498
74,14.900000000000002,-1.1707779534287638e-05,-1.078113324146489e-05,-8.532085468259671e-06,-4.996028955022853e-06,-2.096780741881499e-05,4.3540895413067085e-06,-1.57425519342867e-05,-9.291420624878313e-06,1.1139843123123309e-05,-1.5687609250404432e-07,3.887548873045253e-06,7.314209643379384e-06,1.1108275164270798e-06,-2.291440813811278e-05,4.643666507813817e-06,2.7471984034124295e-05,-3.387268029983356e-06,-1.4268926926950519e-05,-2.5453032877825108e-05,-8.551390599360144e-06,-0.0003559311371431389
75,15.100000000000003,-1.7901572184353433e-05,-2.687076132909913e-05,-2.702503673890073e-06,-5.189206443355047e-06,-1.6510593326499676e-05,-5.530389936790877e-06,-7.301919614246134e-06,-3.329100282027026e-06,7.555965402781398e-06,-8.457648387285752e-08,4.934757602250376e-06,-1.8905439001578077e-05,-1.1110708420774942e-05,-4.811927562702082e-05,-7.46266952942263e-06,1.0754560653742284e-05,-1.6540118821123928e-05,-2.709384284403795e-05,-3.921241808203744e-05,1.787676607921518e-05,-0.0001117631195948579
76,15.300000000000002,-2.5761914975432693e-05,-2.553883346049388e-05,-5.83220610406103e-06,-2.4236517802165603e-06,-3.8402107285127345e-05,-1.2416391405269741e-05,4.2294263417820785e-06,-8.79459739802788e-06,1.6279022043338926e-06,-1.8299479928703857e-07,-3.0341647252705916e-05,-6.48503892474316e-05,-2.5794721080570756e-05,-6.787839275167457e-05,-2.9262326393663733e-05,-5.120313622565121e-06,-3.324826816793806e-05,-5.4149037751396315e-05,-6.323632887463903e-05,-9.526173542606626e-06,4.87604334561852e-05
77,15.500000000000002,-1.985025482955422e-05,-2.154304985467813e-05,-7.118205425472996e-06,-7.574210286892034e-06,-3.3005502989916414e-05,-2.424627291805431e-05,-7.574210286892035e-06,-4.916915770709148e-06,-2.5975241374482802e-06,-6.161221027621528e-08,-3.061393792535181e-05,-5.2042885801532846e-05,-3.321874267331381e-05,-4.858184170946747e-05,-1.218674866930332e-05,1.4399318934580784e-05,-1.0625178064731646e-05,-2.7061036738899883e-05,-2.790415364094804e-05,-7.101802372903964e-06,0.0002822611673868435
78,15.700000000000003,-2.1516804970567683e-05,-2.684779705550249e-05,-1.1743866249939507e-05,-1.480139524880673e-05,-1.2058804859264885e-05,-9.001275860397661e-06,-3.016121367444658e-05,-1.64614708844453e-06,-7.731679591554724e-06,-9.769892592808166e-08,-1.3049549234434308e-05,-1.0910591179432772e-05,-1.711422566103998e-05,2.041259129073453e-06,7.09011870982094e-06,3.583482803178942e-05,1.0872662632239298e-05,1.4661767775685269e-05,1.9805765061333134e-05,-9.158745165060354e-06,0.0003344655224930389
79,15.900000000000002,-1.648258195980487e-05,-2.0803713804460964e-05,-1.0372507966504854e-05,-2.096137237511483e-05,-4.658189160764559e-06,-8.200680717701534e-06,-2.6086884682290672e-05,-1.7881596704940952e-06,-1.449737097830613e-05,-2.8557696650720423e-07,-2.4960144775114743e-06,-8.487040162358563e-06,-1.1891178279742143e-05,-3.7733706519928366e-06,1.0052565550227528e-07,3.0293750696643567e-05,1.921643022646987e-06,1.1757607318338476e-05,1.9096774658368666e-05,1.1278196562676706e-05,0.0003764411863718421
80,16.100000000000005,-2.5266542787847985e-05,-1.7553827469889994e-05,-1.5175384847380619e-05,-2.0532621816425877e-05,-1.5647792761368688e-05,1.37005488951401e-05,-2.493848173646738e-05,-6.094741660818231e-07,-2.336706930035429e-05,-2.22362125452711e-07,-2.96167190448075e-06,-9.965862067109351e-07,8.202245674001186e-06,1.1676412208121777e-05,6.063287618999651e-06,4.499101197582206e-05,9.317653248695238e-06,2.2863294060200358e-05,3.437495635314573e-05,-8.243454831708464e-06,0.0003249583132240291
81,16.300000000000004,2.0373310680221573e-05,1.955971927279768e-05,4.944599433791794e-06,-2.99447800961881e-06,2.6353863646889972e-05,3.0785968451041926e-05,1.8605061613280123e-05,1.0239504803074736e-05,-1.9761678345681458e-05,-1.5018869414897824e-07,2.7879347535809787e-05,2.8043378061500087e-05,2.127219796100443e-05,3.90367038932641e-05,1.649562905290284e-05,5.723096980283237e-05,1.7250169471078232e-05,3.737999558379206e-05,5.3812573647446486e-05,-2.0450606553580717e-05,0.0002494616234698108
82,16.500000000000004,2.727899581178328e-05,1.427784962991725e-06,1.9084030748295805e-05,1.857544940300315e-06,3.442088490033902e-05,-1.2672279025346612e-05,3.601198099953495e-05,1.1020290105360573e-05,-3.0049672916977186e-05,-8.129587335905149e-08,2.4283798412678366e-05,6.824389258202651e-06,-7.200220688318147e-06,-2.5220700956307414e-06,-2.0299785185598365e-06,3.13141467437647e-05,-4.1459722999647275e-06,-1.6559889199859485e-06,1.471753815441997e-05,7.385373656063483e-06,0.00016367693914429678
83,16.700000000000006,-4.267354888975552e-06,-2.8970352057934995e-05,2.4021262855921165e-06,-2.952149462425441e-05,2.3335701974188426e-05,-2.4662910453307667e-05,-1.8134582246486377e-06,4.17037535253357e-06,-4.116438133775203e-05,-9.441831541427562e-08,3.0339805421164308e-05,-2.2806084902493457e-05,-2.1385580550015443e-05,-6.3571037862699965e-06,-1.7186399092343717e-05,1.7486373428072266e-05,-1.5326292931015696e-05,-2.8721025658885737e-05,-5.015334086123327e-06,-7.574210286892034e-06,7.803660168139024e-05
84,16.900000000000006,-4.220606189153816e-06,-2.5813395325033957e-05,-3.9760745285478125e-06,-3.062037296905198e-05,2.9611636064426825e-05,-3.844156132694574e-06,-8.91818809026915e-06,-5.10220717607546e-06,-4.235467515629008e-05,-1.6974617990436035e-07,4.230797728483853e-05,-3.5794148103979e-05,-9.474819370332816e-06,-1.8033427491542943e-05,-2.0520571881654008e-05,9.53751724178397e-06,-1.7113216242420353e-05,-4.3648118940021826e-05,-2.3483909505576763e-05,1.3881171739390614e-05,6.589241244591759e-05
85,17.100000000000005,1.889047472798125e-05,3.665161333407441e-06,1.5944486486583428e-05,2.5103864325477157e-06,3.849868376899992e-05,7.969322327520958e-06,1.1200723683619906e-05,6.325736460104135e-06,-2.321288060620541e-05,-5.505098924860322e-08,4.433160926254704e-05,-1.9230219442444875e-05,-6.288210965480068e-06,-2.204170265277665e-05,-1.370895194770932e-05,1.2571932162738108e-06,-1.7294659239299317e-05,-3.623034312498776e-05,-2.300948275434943e-05,-1.8098408815181796e-05,0.00020184356186191623
86,17.300000000000004,1.7758664100718165e-05,-3.338942113568444e-06,2.4592175800976134e-05,7.57892967637804e-06,5.083377930091061e-05,-7.656225549737186e-06,1.8618184055335348e-05,1.1427085809072517e-05,-2.012254550220012e-05,-3.2086715651960975e-08,3.1858728089056506e-05,-1.698628185100155e-05,-8.351714978664064e-06,-6.11433860824835e-06,-1.1022131936902178e-05,1.7033562461514312e-06,-1.1704498923773835e-05,-2.628353204712785e-05,-1.549688467773361e-05,2.328321220596753e-05,0.000195961427210662
87,17.500000000000004,2.12033051402145e-05,6.305966081368578e-07,1.6954914524835686e-05,-5.17617071695254e-07,5.05549274072371e-05,6.14858349235861e-06,1.0528198528289667e-05,1.0990764610736316e-05,-9.158745165060349e-06,1.0561221027517477e-08,3.6550001123799134e-05,1.8106408815181603e-05,3.004126986440796e-05,5.5643154314150246e-05,1.2821345277440084e-05,2.3768742562010826e-05,7.5822102868918455e-06,9.776938720628083e-06,1.7384674502144277e-05,-2.2815926734034873e-05,0.00019013834354865625
88,17.700000000000006,2.3890125151021646e-05,1.198150898590574e-05,5.663053136315315e-06,1.3850503106595302e-07,3.648766952403682e-05,1.7299378628785322e-05,4.885548444543285e-06,6.502802712196944e-07,-1.250824849965631e-05,5.3209157706995926e-08,3.270184499110465e-05,1.2765574898705382e-05,3.1740626110559494e-05,2.6002838321912725e-05,4.2786354994891684e-06,1.7361623512894916e-06,-7.009945278517397e-06,-7.833465233135427e-07,-7.420021592743151e-06,3.9922468731991746e-05,6.811603548764079e-05
89,17.900000000000006,1.0879223853266912e-05,1.4776250073360858e-06,-2.380183690908631e-06,-3.8248510015941005e-06,2.25845683438543e-05,1.1924918454542583e-05,-1.0610604583410702e-05,3.137866281976848e-06,-3.1716940660280634e-06,-1.6331113620420237e-07,2.587609319648511e-05,3.054210713874794e-06,1.1098015339072283e-05,-3.583536862838175e-06,2.1635644210511914e-07,2.1957396395519818e-07,-5.263083268579411e-06,-4.677494291865033e-06,-1.1312024346727924e-05,-4.370603433332325e-05,-4.000910172758248e-05
90,18.100000000000005,4.449227246207083e-06,-1.140933069318401e-06,-1.6461470884445302e-06,-6.330858902159548e-06,7.759363254637372e-06,2.9467076308839187e-06,-1.0890907516349935e-05,8.835403503165751e-06,-8.292750705068277e-07,-2.322039569941291e-07,2.431004329678882e-05,6.506506770980119e-05,1.6023221138914776e-05,5.015141231403895e-05,3.4988430519227464e-05,3.6005419778507336e-05,2.9286729446232574e-05,5.9025463753884285e-05,4.982007065214455e-05,4.014555024693054e-05,-9.033417171867688e-05
91,18.300000000000004,1.1007167663305348e-05,9.960652909401221e-06,4.596854719328354e-06,-5.527109326277069e-06,2.1738044653964887e-05,2.9667280265834075e-05,-4.923476991736759e-06,2.15280855810813e-05,2.2544988124708454e-06,-1.3706625209375409e-07,4.853079072021878e-05,0.00010344493011081798,4.191707992438581e-05,7.930947856074697e-05,5.27824619461114e-05,4.798948998544078e-05,3.8265760422519685e-05,8.204550772926123e-05,6.506178709928738e-05,-5.273509461994591e-05,-9.198431880712132e-05
92,18.500000000000004,2.2102192420997355e-05,6.211579885788956e-05,-4.1492529104785345e-06,1.4960303332441617e-05,5.03973713869217e-06,6.030490185426863e-05,8.208720179376082e-07,7.014664668003403e-06,-1.4689941206990043e-06,-1.6659174671800838e-07,3.662873577613048e-05,5.73523523918432e-05,2.8404245218018754e-05,5.1545585066753815e-06,1.5180104236866623e-05,8.589357714630297e-06,2.3233916332607723e-06,3.297085505323675e-05,1.60921139597047e-05,5.81068928100186e-05,-8.036111575670653e-05
93,18.700000000000006,9.015837081425083e-06,8.23571657280728e-05,-3.330403854667277e-05,7.247588014483631e-06,-3.8927004967336304e-05,4.2356681733235814e-05,-2.1136254150966178e-05,-1.688786353558737e-05,-5.1399972856479575e-06,-1.009795364418877e-07,-2.1457753981319173e-05,-1.9164607232168758e-05,-2.5811210848792507e-06,-2.6395072804597255e-05,-2.258628399806845e-05,-2.34818906683375e-05,-2.3458926394740858e-05,-2.8885056184576033e-05,-2.3114462290791225e-05,-2.7402220232335714e-05,-0.00012773641218657945
94,18.900000000000006,-1.5044104880388618e-07,2.9511892887074366e-05,-1.1775347493139298e-05,1.1223498691225366e-05,-1.4915648818816396e-05,3.471140819680204e-05,-1.3384108418178797e-05,7.472475473681535e-07,-3.4837936854857262e-06,-1.793987454545974e-07,-8.171723021050823e-06,-3.5867543846882543e-06,1.0869571287716674e-05,1.7623149651032486e-05,-9.526299719934081e-06,-1.485129838181482e-05,-1.356107211993314e-05,-7.5829165224863674e-06,6.10442142774968e-06,3.0300185740343727e-05,6.827016109312596e-05
95,19.100000000000005,-1.9512438662284915e-06,6.807986205633621e-06,6.857195363340711e-06,2.2315432104394748e-05,-2.7648352736523875e-06,3.947302509160032e-05,6.361823175756003e-06,3.212437082502207e-06,3.0976157145189955e-06,-2.0923968339748686e-07,3.9669775006775954e-06,-1.6231828148478877e-06,3.2390186992293076e-05,3.56642362850715e-05,-1.0854820800698071e-05,-1.2554177046849595e-05,-1.2580421930960045e-05,-3.3750288292203105e-06,8.4810975676747e-06,-2.6979021476054734e-05,7.985405990603881e-05
96,19.300000000000004,-1.7209363365940358e-05,-4.5134006775110045e-06,-3.2700492927785174e-06,8.143194684752677e-06,-9.988739625053276e-06,2.9188311130818394e-05,-3.686686828031884e-06,7.710154096930282e-06,6.962174899782506e-06,-1.5674991517659026e-07,-6.68525155330332e-07,-2.637866975202823e-05,2.9572142560933704e-05,2.0783386994447332e-05,-1.4414283208177617e-05,-1.5601864214175403e-05,-1.2386865910645487e-05,-1.953203560971503e-05,-1.5214838889199006e-06,2.0350346406624932e-05,6.033762124375397e-06
97,19.500000000000004,-9.135780891463708e-06,6.286369133938464e-06,-4.697114866284142e-06,1.7889888521270408e-05,-3.860559185263604e-06,3.718972017399131e-05,1.0692229053979965e-05,6.804705595119816e-06,1.5229226678920998e-06,-1.0754075746949978e-07,-4.19198756281073e-07,-2.561428750231142e-05,3.466036946784686e-05,1.224395782701022e-05,-1.4348670997901496e-05,-1.510649202659069e-05,-1.2734610625108927e-05,-2.0460448385122143e-05,-3.132263651198664e-06,-1.2386865910645487e-05,-0.00012539405627972198
98,19.700000000000006,-1.2626350478153327e-05,3.212437082502207e-06,-2.305549801719543e-06,2.0396274953818213e-05,-1.5582180551092565e-05,2.9503249740143766e-05,1.5649231540340885e-05,2.3922844540506984e-06,-2.96167190448075e-06,1.3841831541323528e-08,-8.633847482851384e-06,-2.1470876423374395e-05,2.31618296169567e-05,-2.4400548327855902e-06,-1.925318371604152e-05,-2.4459512601451697e-05,-1.906290830624077e-05,-2.4761328768721857e-05,-1.34793092117429e-05,-1.7248817407758752e-06,-0.00029595299689249774
99,19.900000000000006,-3.912750074066084e-05,-1.6945905106216244e-05,-2.1038592899516725e-05,9.801354033490444e-06,-5.4439687225186776e-05,6.599919792661848e-06,-5.494744841785098e-06,-1.7093911111319878e-05,-1.1241238866026186e-05,1.9383378915456614e-07,-5.267005020764333e-05,-5.420480813013101e-05,-6.588095011163678e-07,-3.808502366123525e-05,-2.7827564003183403e-05,-3.215834841338974e-05,-2.1231644210521466e-05,-3.582954084432987e-05,-2.288545044146207e-05,-4.400180153109968e-07,-0.00024467566661110743
100,20.100000000000005,-3.488529281432727e-05,-1.8351015824744863e-05,-3.6958638659052687e-05,-1.0359448613113356e-05,-5.0573172291347725e-05,-6.816389258202841e-06,-1.2672279025346612e-05,-3.344510479876642e-05,-1.3922191631106713e-05,1.9755602031446148e-07,-5.9483310446844934e-05,-6.977130501814065e-05,-1.7317623512895957e-05,-5.926350954241992e-05,-3.2870997958850366e-05,-3.943549959697625e-05,-2.2218855620522177e-05,-3.2579023623121635e-05,-3.006935658006002e-05,-1.2357340416021234e-05,-0.00011727454525805205
101,20.300000000000004,-3.744416901509598e-05,-2.5230456072196113e-05,-3.4806558161995923e-05,-1.773098043763552e-05,-3.836930117998929e-05,-2.2691263534510248e-05,-2.7615459915733094e-05,-3.291036528501604e-05,-1.4151834367073138e-05,1.877141887730433e-07,-4.959555035823352e-05,-5.349619625914892e-05,-3.2323136003044766e-05,-4.487803243938045e-05,-3.368458936627427e-05,-4.1233274158541955e-05,-2.6372108531000614e-05,-2.5473221250217764e-05,-3.0492555336341e-05,1.2860712603605758e-05,-3.871376528393892e-05
102,20.500000000000007,-7.531562350212557e-06,-4.913721875848058e-07,-8.217209947598018e-06,1.1988070206933352e-05,-8.751949461348401e-06,-1.0818734085046204e-05,-3.237243187640456e-06,-9.74597444703163e-06,-1.741284793344905e-06,4.336732616557784e-08,-9.749255057545438e-06,-3.5456205759382243e-06,-2.6086695416299484e-05,-2.5151721419864768e-05,-2.096894301476208e-05,-3.606303198878364e-05,-2.20121771581524e-05,-9.152183944032737e-06,-2.033578518559751e-05,-2.967568331840329e-05,0.00015234242981909695
103,20.700000000000006,-1.0247907855643953e-05,-9.68692345778312e-06,-8.017092706255849e-06,-8.78484228213918e-07,-1.2337656752938398e-05,-1.6566363705234377e-05,-2.761554663138582e-06,-6.435838438601342e-06,-7.593893949974872e-06,5.320915770699593e-08,-1.126817772543763e-05,2.4897272578760093e-05,-1.6969878798432516e-05,1.3139564497279267e-05,8.694337251072092e-06,-9.19155127019841e-06,6.361823175756001e-06,2.4946481736467186e-05,1.2778697340760604e-05,4.026693283594138e-05,0.0001704120325291406
104,20.900000000000006,-1.4185271358848466e-05,-2.2496130297602514e-05,-6.234774867303268e-06,-1.2981918186918922e-05,-6.714185622965036e-06,-3.5639707055175214e-05,4.480180153108068e-07,-8.770182085165516e-06,-4.822282775118588e-06,1.1017822105251229e-07,-1.1176888429024607e-05,3.8569216895046746e-05,-2.0034726082292077e-05,2.618819281594277e-05,2.2999628662514486e-05,8.466082465707665e-06,1.8588406206056183e-05,4.362716124337094e-05,3.163867482997659e-05,-4.736757419871315e-05,0.0002579366391115826
105,21.100000000000005,-1.8331418877314742e-06,-2.1405264213098278e-05,8.379398641746712e-06,-6.127461050303573e-06,4.02930910043991e-06,-5.628143458537024e-05,9.557137816203079e-06,-6.885282078992767e-06,-1.2088330353889138e-05,5.6489768220801965e-08,-1.2744452456650346e-05,1.918572967422379e-05,-3.7519623056913515e-05,1.1554942903458237e-06,1.6623572862941278e-05,1.5885348781682201e-06,1.4897971732679306e-05,3.309879886327519e-05,2.269926353451006e-05,5.461304261281516e-05,0.0001718915878708671
106,21.300000000000004,9.478403163871734e-06,-4.720079139880784e-06,1.6613731031399858e-05,-7.81697546491368e-06,1.686305743044912e-05,-4.3090099709356164e-05,2.041259129073453e-06,5.951746861530246e-06,-1.983385177698519e-05,3.6806105137965775e-08,8.1103018639619e-07,2.2712385976565283e-05,-3.9583127070097524e-05,9.212673712253446e-06,3.0946718366218424e-05,9.110974786325457e-06,3.2045722888343446e-05,4.3508176023581735e-05,3.894484679887754e-05,-3.314000802098246e-05,-2.1871110906058735e-05
107,21.500000000000007,1.825075567778907e-05,-6.521221027613018e-07,1.8365577045772284e-05,-3.424237986927401e-06,2.5041619441367564e-05,-3.0292438094998823e-05,-7.833465233135429e-07,1.1450050082669163e-05,-1.3731916221305962e-05,-5.505098924860322e-08,4.6296608244664146e-06,3.9804366753494714e-05,-2.014879038631057e-05,3.5027797845393134e-05,3.4634124583736415e-05,1.1039973768443406e-05,3.423060949053827e-05,4.393465539037653e-05,4.0942738601785414e-05,3.999136155278167e-05,-0.00012794637125946304
108,21.700000000000006,8.461413904591864e-06,-6.757338268954332e-06,5.754910230701884e-06,-2.676258789779625e-06,6.0042366297511436e-06,-1.8029515994391867e-05,-4.48387518288675e-06,1.0144280382521639e-06,-6.580185301208806e-06,-2.8806105138154932e-08,-6.232440586745368e-06,2.9296571277773993e-05,2.694100621320854e-06,2.2896100165338415e-05,3.166845267925575e-05,1.6052746633539027e-05,3.7934418760625276e-05,3.215398303529905e-05,2.702638880222021e-05,-2.705119490735846e-05,-0.00020023134332066526
109,21.900000000000006,-2.4734918245609214e-06,-1.0855136244016708e-05,-5.655013674640768e-07,-7.98188923189616e-06,-3.055863279425219e-06,-8.023717015947188e-06,-4.265651495054921e-06,-8.799139781816227e-06,6.542004399360424e-06,-5.3915393301516505e-08,-1.1083580295372312e-05,2.2877362832211485e-05,2.2703616652307216e-05,1.6332923389150812e-05,3.225322150334168e-05,2.2626396127905322e-05,4.2298324719288304e-05,3.346622724082146e-05,2.490118407591117e-05,1.7024690586917795e-05,-0.00014940162710841827
110,22.100000000000005,-8.322189484039811e-06,-1.1212407346702927e-05,3.2452431876402675e-06,-3.4537634815516555e-06,-8.653531145934221e-06,7.421373656062633e-07,2.4513354432992077e-06,-7.147730920097249e-06,4.954441265333211e-06,7.280610513711446e-09,-1.8236194456761646e-05,1.839838315091034e-05,3.17537485526147e-05,1.4156553756559141e-05,2.382779355125933e-05,1.5258838889197967e-05,3.077940723001432e-05,3.0431662515550874e-05,1.976967834568126e-05,-1.6162848612036235e-05,-2.007333634449302e-05
111,22.300000000000004,-1.8787337023081062e-05,-2.824861774489767e-05,-4.369053814903539e-06,-5.097349348968479e-06,-2.1677641601396895e-06,-2.2294309662339713e-05,-2.3547589594266337e-06,-5.441813452918114e-06,-1.3344890896329568e-06,-7.801526284524545e-08,-1.1068060484095464e-05,-1.1278106272631765e-06,4.222865120754468e-06,-2.9055647931293947e-05,2.2577794229846516e-06,-1.529676743639144e-05,1.614779762278669e-06,5.403884905724639e-06,-1.08712238532671e-05,-3.0797738829777645e-06,0.0001953741979286907
112,22.500000000000007,-3.624018495652917e-05,-4.852607133073277e-05,-1.233437614242459e-05,-1.599225686531832e-05,-9.522892932092819e-06,-5.1445814688020136e-05,-1.2970814582102962e-05,-8.541990388464815e-06,-1.9751836514140035e-05,7.617343130363818e-08,-2.0768825773419904e-05,-3.312032435789963e-05,-3.276273781189477e-05,-5.5585945156443356e-05,-1.5657634592910107e-05,-3.795594425524973e-05,-1.7435725491392976e-05,-1.7268414355188867e-05,-2.9724892476110385e-05,6.0206396823201735e-06,0.0002480903282750399
113,22.700000000000006,-1.9115398074461668e-05,-2.165787122266134e-05,9.85239276244562e-06,2.313549801719354e-06,-1.6881302314559755e-05,-2.9052367320780145e-05,1.7050052229736064e-05,9.061765628618368e-06,-9.270285922529753e-06,-8.785709438666354e-08,-3.0131688179822332e-05,-3.612536358854596e-05,-2.4193783149833405e-05,-6.214716618405542e-05,-1.035944861311336e-05,-3.542003232807766e-05,-1.1842284565353689e-05,-1.970918857746056e-05,-3.355664555623583e-05,-2.0027407797299743e-05,7.160660507433041e-05
114,22.900000000000006,-1.1891178279742143e-05,-2.097745998436523e-05,1.4038830310044485e-05,7.783967833490915e-06,-6.35704069760627e-06,-2.8664119684203946e-05,9.8850096015925e-06,1.5081307389470077e-05,-5.423959361083359e-06,-8.609061180230646e-08,-1.545297496777959e-05,-1.4867385991065215e-05,-2.028247526474816e-05,-4.0681563794248984e-05,7.99632427559613e-06,-1.7206524376072645e-05,5.280735834129457e-06,-3.3100475055814605e-06,-1.5301751440825876e-05,2.0818148848160932e-05,-0.00011394775384239782
115,23.100000000000005,7.142608478041836e-06,-1.465713510185198e-06,2.0914611414999572e-05,2.3591589594265295e-05,-1.1648728545039131e-05,-1.491621661678994e-05,2.9585265002988926e-05,1.0656142338328101e-05,-1.9643663082837158e-06,-1.27224420552336e-07,-1.3321839907080209e-05,-1.6799287051714602e-05,-1.9702627356432945e-05,-3.525600180238736e-05,2.543192537685777e-06,-1.9617331483073987e-05,-4.585660824467455e-07,-1.1530626566542114e-05,-1.5739649855755257e-05,-3.787720960291838e-05,-0.00020856737463624634
116,23.300000000000004,1.0800402485282848e-06,6.775180100495562e-06,1.4327145503277053e-05,2.570102215464257e-05,-3.2995661158374995e-05,-5.802680609436777e-06,1.473722181750281e-05,3.976819332219014e-06,-1.9545244767422973e-06,-3.208671565196096e-08,-2.024392809121094e-05,-1.4548788239243664e-05,-1.088762690583613e-05,-4.3362477097654775e-06,1.9165959295488235e-06,-8.489500620243918e-06,4.813375013239553e-06,-6.970577952351725e-06,-1.23279016370497e-06,4.905896901294153e-05,-0.00020933503749647698
117,23.500000000000007,2.328977342699514e-05,2.5500904913300407e-05,2.508754798856084e-05,2.784654143067172e-05,7.615016392029906e-06,6.266685470855627e-06,9.39966851154039e-06,1.573780802421365e-05,6.630833237888095e-06,-9.122442055318728e-09,2.2873135891741774e-05,7.441144034798186e-06,1.7351868397006218e-05,2.599627710088512e-05,1.2401427131672913e-05,8.395801694315742e-06,1.704021039819464e-05,1.3880982473399435e-05,2.564525177590787e-05,-3.0279315652943602e-05,-9.642626544281466e-05
118,23.700000000000006,1.9930428260857763e-05,2.0976943014761887e-05,1.8270439340871906e-05,2.0553744258480906e-05,1.697459818791852e-05,7.260710456538854e-06,-1.0589178064732497e-06,1.845743414015885e-05,1.2024156922585219e-05,1.5818869414878906e-07,4.6723174327111645e-05,1.6994281851001363e-05,2.5989715879857507e-05,1.5104650195049085e-05,1.1669850987094163e-05,4.5574873931626815e-06,9.990178404025476e-06,7.549404181753786e-06,1.3372487843759496e-05,4.147419750502199e-05,9.352108330655473e-05
119,23.900000000000006,8.25694354545253e-06,1.293522031546739e-05,9.756308727589342e-06,1.2468679647205934e-05,1.1532380788832944e-05,1.738505303412664e-05,-3.3743979425830405e-06,1.80961253629941e-05,1.9698451244333437e-05,2.5496670430606706e-07,4.5065393510356234e-05,9.981535257094872e-06,3.8128416401585926e-05,1.2668166001910834e-05,1.4621201764908782e-05,7.668137046888073e-06,1.1500205570332158e-05,1.0061973303346845e-05,1.0689390064112251e-05,-2.8924738954060342e-05,0.00018841242697507563
120,24.100000000000005,5.682650083745432e-07,-9.601627584424163e-06,7.923393780327675e-06,-6.252124249828204e-06,-3.860559185263604e-06,-9.155464554546544e-06,-3.568584849534867e-06,1.5665634592909918e-05,-1.7380041828310995e-06,2.861325041872244e-07,1.7325623512895768e-05,-1.0480831202124182e-05,-1.285279931925867e-06,-1.5857751834252272e-05,-3.1880340299333662e-06,-2.1775973201158357e-05,-1.1199284904647704e-05,-9.893601920152903e-06,-1.664509835756572e-05,2.5930664890608998e-05,0.00015334301602580778
121,24.300000000000008,-2.9977499485673448e-05,-2.2806084902493454e-05,-1.120256551516151e-05,-1.7081419555901924e-05,-4.1279202705735236e-05,-1.3712232558223128e-05,-1.583478756065563e-05,-1.3705758052848234e-06,-2.3252247932371076e-05,3.058161672700606e-07,-3.20180392252608e-05,-4.8207852110893586e-05,-3.489513464586869e-05,-7.32815582679131e-05,-2.753344465288795e-05,-5.3827537921043326e-05,-3.457035420500189e-05,-4.505518540712598e-05,-4.9405274948432794e-05,-1.5674037645479134e-05,1.6370965853378214e-05
122,24.500000000000007,-4.0803514181233366e-05,-2.118874391918708e-05,-1.9522193778173616e-05,-1.2957692140047739e-05,-6.217997228919348e-05,-1.4712818764933965e-05,-2.6424598299221513e-05,-6.111057997734544e-06,-1.255089643633579e-05,4.2063753525327195e-07,-4.589830230917413e-05,-5.234142135828919e-05,-3.5613588348392215e-05,-8.676814809016973e-05,-2.154633046519194e-05,-4.598031757201928e-05,-2.294387054407331e-05,-4.5665378962693905e-05,-4.705635782054766e-05,-4.191987562810725e-07,-0.00014187256289056966
123,24.700000000000006,-3.2519972633873125e-05,-2.1903917011196795e-05,-1.479155341726531e-05,-6.750777047926719e-06,-3.708330185857732e-05,-1.7238888860564613e-05,-2.8363439112880876e-05,-5.655053136315504e-06,-5.179364611813631e-06,3.41902882921927e-07,-2.838968399699133e-05,-5.41359153093411e-05,-2.2297590272853514e-05,-4.871634674053352e-05,-1.4824359522403372e-05,-2.5952190385233442e-05,-7.839939738510323e-06,-3.2920207116557456e-05,-2.296355420715614e-05,-6.993542225948366e-06,-0.0002821317847978329
124,24.900000000000006,-8.133112758849873e-06,-1.2068141981496484e-05,2.442881562359784e-06,5.895889767142828e-07,-4.558445983412111e-06,-3.9342467444967845e-06,-9.330030887079261e-06,5.744058980540833e-06,8.86505517511746e-06,2.614017480062251e-07,2.2916580354060718e-06,-4.0083104730134296e-05,7.4043002551815956e-06,-1.5465845055179907e-05,-1.3416283636679588e-05,-2.1611311788830787e-05,-1.0639562280061412e-05,-2.8059225576389094e-05,-1.2898262618816868e-05,-8.509562815309117e-06,-0.00019589481784205979
125,25.100000000000005,-3.667089880601768e-07,-1.8177143467513137e-05,1.1673131597607973e-05,-4.95628309687482e-06,8.24161300016686e-06,-2.32095999956916e-05,-5.668175578370729e-06,6.79158315306459e-06,-3.493130807717328e-06,3.2878044086670276e-07,8.868209608303811e-06,-2.3586870204779296e-05,-1.1714340755315252e-05,-7.420021592743151e-06,-1.4365074050470529e-05,-2.972489247611038e-05,-1.7396358165227302e-05,-2.5269823398361787e-05,-1.7914694626408657e-05,1.377600293695764e-05,-7.062426375173022e-05
126,25.300000000000008,1.7391235723171888e-05,-1.170458563942655e-06,1.2857431993091952e-05,9.527612321578824e-06,2.629481265764147e-05,-1.4988390048093675e-05,1.3608691800753533e-05,8.011970264200437e-06,1.3510273485339351e-05,4.6328547193275024e-07,4.7169337356989276e-05,1.8080163931071157e-05,4.928109665570045e-07,2.8112270882290012e-05,-2.7746771051938064e-06,-1.443068626074665e-05,-5.884695872281927e-06,-9.965862067109351e-07,7.847939738510134e-06,-2.8242056523870055e-05,0.00022600525829609758
127,25.500000000000007,-1.307251350803095e-05,-1.1054938042040238e-05,-4.7233597503945906e-06,6.217476313148537e-06,-1.2655962688430303e-06,-2.3350752963437976e-06,7.257343130372333e-07,-1.183581005997879e-06,1.262450864661172e-05,4.796885245017805e-07,3.998151972124024e-05,3.042182068400946e-05,1.297225336107516e-05,4.039815725649361e-05,-5.64193069426028e-06,-1.4233849629918286e-05,-9.280127754071171e-06,4.2063753525327174e-07,6.4208741650045104e-06,3.6632016386644284e-05,0.00017613669787573213
128,25.700000000000006,-3.100104996598093e-05,-2.330801831110578e-05,-1.752430197526574e-05,-9.768938720628274e-06,-2.5230456072196116e-05,-1.5910241602473174e-05,-1.5775736571407122e-05,-1.616612922255004e-05,8.369556810205296e-06,2.9597433572864254e-07,4.682150592687311e-06,-1.6100603727926635e-06,1.0537953644178366e-06,2.0399555564332022e-05,-2.101487156195536e-05,-2.5469940639703952e-05,-2.0640881963381473e-05,-2.351797738398936e-05,-1.8131214920319856e-05,-2.3563905931182652e-05,-1.7717857995580298e-05
129,25.900000000000006,-2.5758697453582612e-05,-3.879548873045441e-06,-9.584215113235503e-06,-8.287308995222717e-08,-1.8416312591702344e-05,5.6153581065376736e-06,-6.978022414671515e-06,-5.691013674639917e-06,6.583832183411451e-06,1.9383378915456614e-07,-8.168505499200745e-06,-9.934924994894111e-06,6.075463731098969e-06,-2.1836538318336317e-05,-1.441693293205415e-05,-2.6955615581812e-05,-1.5008956952468689e-05,-2.216472554704437e-05,-2.542407518117439e-05,5.2057068490577894e-05,-0.00018138057677635338
130,26.100000000000005,3.024794832677774e-05,4.06606060975981e-05,2.1859427242975704e-05,4.0512978624476826e-05,1.0692229053979966e-05,2.3506293720906343e-05,6.127924317686902e-05,6.299491575993685e-06,9.038801355021727e-06,1.2538258901072873e-07,6.981858562865342e-06,-1.7327465344437377e-05,1.3224860370638228e-05,-3.865799490520421e-05,-1.550672650927503e-05,-3.193602396241564e-05,-1.9282709210665777e-05,-1.8246036288303066e-05,-2.8753831764023797e-05,-7.047991688912276e-05,-0.00035705764832264896
131,26.300000000000008,-2.3416365173714095e-06,1.7256730692105843e-05,3.875120406291027e-06,2.2856732839172748e-05,-1.483420135394479e-05,1.1325386883144533e-05,1.7752102879690554e-05,-2.8632535890665694e-06,1.2736049404081125e-05,-1.240305256912475e-08,-1.7314342902382152e-05,-9.637714300076032e-06,1.2732768793567322e-05,-8.364837420719289e-06,9.585709438647443e-08,-7.459388918908824e-06,-1.701917467179233e-06,5.499022610625014e-06,2.802360768276453e-06,3.858397964235887e-05,-0.0002899461990417189
132,26.500000000000007,1.627582814847784e-05,3.407314018587558e-05,7.542842960726175e-06,1.351027348533935e-05,1.70697358928189e-05,3.4739104120178205e-05,1.2125855848513204e-05,1.4081012999088884e-06,1.834261277217564e-05,-1.0097953644188767e-07,3.1668452679255757e-05,2.862076551192995e-05,4.327853328761532e-05,4.133641186344214e-05,2.4398619780661586e-05,2.5917542448553773e-05,2.3250406100829467e-05,4.3731257538520544e-05,4.682815386355345e-05,-8.400924136371156e-06,-0.0001302427986191273
133,26.700000000000006,2.8082745387665754e-05,3.517870592902821e-05,8.031653927283272e-06,4.846181118377611e-06,3.085158066131805e-05,2.5277823398361594e-05,1.3671023400515846e-05,2.644891463613764e-06,2.1488718254915625e-05,-9.769892592808166e-08,4.653617952782472e-05,4.760565855532547e-05,2.3949176140270156e-05,4.6486970370117614e-05,3.703881209035623e-05,4.309481909884218e-05,3.8127974780939834e-05,5.741796460211932e-05,6.244714051978398e-05,2.275831452375856e-05,2.184302419040668e-05
134,26.900000000000006,2.9772512156930773e-05,3.087612215150787e-05,9.463514239232152e-06,3.012382929823766e-06,2.665151596235415e-05,1.5110265086120788e-05,1.5911428026790458e-05,2.5651473926627857e-06,1.830526428324923e-05,-3.0166457575759923e-07,4.0387116740341384e-05,3.7977192874632206e-05,1.6821986710362817e-05,3.2015124886435826e-05,3.645530503954485e-05,4.4489457099192095e-05,3.922880887431294e-05,5.103389654225278e-05,5.333764218690932e-05,-3.5025160381810125e-05,0.00018366336472435904
135,27.100000000000005,2.9775540412789675e-05,4.207454922904849e-05,4.593574108814548e-06,-2.4170905591889483e-06,1.547863979362297e-05,8.569674051547461e-06,1.0902188126863553e-05,-1.5706930466269914e-06,9.160183944032547e-06,-1.7315296774562047e-07,3.0897509208511334e-05,2.9936290327966166e-05,8.966627923717991e-06,3.7773668845448785e-05,3.090078981902514e-05,3.840026545358573e-05,3.3190655957661756e-05,4.465310909290004e-05,4.709388331517173e-05,3.3459666019793847e-05,0.00011301775159010399
136,27.300000000000008,1.4560068849757282e-05,2.2932186880990283e-05,-1.3252947086290282e-05,-3.077140723001451e-05,-2.341636517371409e-06,-3.523959874981833e-05,-5.966711135127078e-06,-2.3340824416243836e-05,-1.588399671836272e-05,-2.7485189367360754e-07,-1.07532085904228e-06,1.1095657431525388e-06,-2.1447912149777758e-05,2.2905941996879837e-05,7.162292141124673e-06,1.756510808040361e-05,1.3844895757747567e-05,1.4245130240431902e-05,1.6121639454328952e-05,-3.720140383707434e-05,-0.00013311005220819377
137,27.500000000000007,3.096640202930126e-05,2.5215491798599283e-05,-1.53820633097504e-05,-2.9111418310028648e-05,1.8083444541584963e-05,-4.6898888515884976e-05,-4.8053750132397405e-06,-1.4962145163983226e-05,-1.2819906498467885e-05,-4.192854719337908e-08,-3.883523458860245e-06,-1.764335782594263e-07,-1.8685638097153073e-05,3.325954877845168e-05,1.0121402824577717e-05,1.5878874276307308e-05,1.8749408475887588e-05,1.3126442055224044e-05,1.684337376736628e-05,2.830254629209076e-05,-0.00023955930216017205
138,27.700000000000006,8.767175476043859e-05,4.688720485280196e-05,1.3182212433958748e-05,-1.4673451438768297e-05,8.467655736133365e-05,-4.4825542671159554e-05,2.2771436965813786e-05,-5.044859580747582e-06,-1.5936486486583617e-05,-7.17734313037422e-07,2.5812562912111983e-05,2.0068213902437614e-05,-2.9826591402038366e-05,3.5834828031789425e-05,1.2168503785192681e-05,1.3953155904703166e-05,1.4966864553469231e-05,2.205298326329027e-05,2.141326421309809e-05,-1.829852605652396e-05,-0.0003736640987435351
139,27.900000000000006,0.00013551958528162705,8.362739288355299e-05,4.4492674621042176e-05,9.463514239232154e-06,0.0001299854476994912,-3.670792430940143e-05,5.318641865995562e-05,8.038152059647158e-06,-5.623445715788258e-06,-1.0217822105270145e-07,4.3907085644327796e-05,2.0625097537156188e-05,-3.4532879538748034e-05,1.7140521373520636e-05,6.760795885165797e-06,1.0135976305898661e-05,8.208680717701345e-06,1.4286579492500569e-05,1.1921700932692503e-05,1.632066056139875e-06,-0.0002426679329766581
140,28.10000000000001,0.00012326309822472027,6.764034696313892e-05,5.188357466532854e-05,5.4957420001112074e-06,0.00013497487775900778,-4.151540666272927e-05,5.598105719707228e-05,1.554097139338529e-05,-7.5873327289472584e-06,-2.0595907288368083e-07,5.0328565281784486e-05,1.3946594683675555e-05,-3.2323136003044766e-05,1.4783150364696091e-05,4.308160994113423e-06,1.060693318062101e-05,4.928196381222763e-06,9.918004972721742e-06,6.0140784612925595e-06,-1.527052255228099e-05,-6.232440586745365e-06
141,28.300000000000008,8.898071835544718e-05,2.2518829956250722e-05,5.003002972502814e-05,-5.891257093309539e-06,0.00013305243999791748,-3.0794371503611155e-05,4.9387030064322146e-05,2.2476182019571246e-05,3.3239778399716133e-06,1.056989259278925e-07,6.35002164947157e-05,2.33783499108679e-05,-6.048726397972228e-06,3.568063933764053e-05,3.5667430179932594e-06,2.0081336344492835e-05,2.8351668734145133e-06,3.999783605815656e-06,1.6246215938200865e-06,9.498086826954568e-06,0.00021487742743326756
142,28.500000000000007,4.612938382411275e-05,-1.5070405310938825e-05,3.737671497327825e-05,-7.702154096930469e-06,9.543367923610366e-05,-1.7065016503332894e-05,4.233699807015298e-05,1.669574629424501e-05,-2.1644835496258838e-06,1.7122442055129564e-08,6.811275487712698e-05,3.132398857530612e-05,8.73698518775157e-06,5.159160032959981e-05,-2.8074832103318663e-06,2.301420214383544e-05,-9.155464554546544e-06,-3.899926511429276e-06,1.221106500621944e-06,2.047829021666337e-05,0.0005048702744116658
143,28.700000000000006,1.4907813564220724e-05,-3.0882947987483916e-05,2.0684968679033153e-05,-1.7015807345625804e-05,5.32679923021547e-05,-1.2268763932148473e-05,2.5983154658829897e-05,8.038215148310886e-06,-1.1343718482907886e-06,-6.817343130382736e-08,4.401667065322167e-05,4.55092617213507e-06,4.429543583124247e-06,2.9434356919353844e-05,-1.7501337701669096e-05,6.374945617811226e-06,-2.5765195585946498e-05,-2.5866894511874487e-05,-1.5674037645479137e-05,-2.3016043975377042e-05,0.0006321907684524782
144,28.900000000000006,-7.023067720572621e-06,-4.839396366888835e-05,1.2198407811799301e-05,-1.6884772191064742e-05,3.573136262327707e-05,-2.5282504219770923e-05,2.564443162327942e-05,5.3000409652299325e-06,-1.1749607318338666e-05,7.217521849984418e-09,3.588902119393094e-05,-2.9272231313868877e-05,-1.0562341755659518e-05,7.215073725675213e-07,-3.7766488998077427e-05,-1.8770239995211033e-05,-4.614813341753321e-05,-5.5643040397116325e-05,-4.510565633810761e-05,-6.176859474001848e-06,0.0005544570177711627
145,29.10000000000001,-7.954761106493535e-06,-4.6738138600708485e-05,1.6948353303808075e-05,-1.7790031426884028e-05,3.729798032094691e-05,-8.788036177000268e-06,2.1990651663527954e-05,9.973775351456444e-06,-9.585224531855135e-06,3.090967777838666e-07,4.255679897457798e-05,-2.807474538766595e-05,6.266685470855626e-06,-2.8927790836908237e-06,-4.6265730686720404e-05,-1.8610184055335534e-05,-5.503152197961013e-05,-6.575911835975588e-05,-5.602554696529337e-05,1.8378612772174798e-06,0.00017507378006925895
146,29.300000000000008,-6.75077704792672e-06,-3.1384881396096235e-05,1.1548468398083344e-05,-1.2544335215308178e-05,2.559932322871459e-05,1.0511795475720635e-05,2.0222402596586494e-05,3.845594911666772e-06,-3.985222384788233e-06,2.8285189367341836e-07,4.5847251319925445e-05,-1.1415805198558899e-05,1.1925738607171037e-05,-2.3593431425806903e-05,-3.4337430858521665e-05,-1.0470989370582762e-05,-4.1810661608971806e-05,-4.905424962345554e-05,-4.536356279542376e-05,4.537156279542356e-05,-0.0001269818717684041
147,29.500000000000007,5.400604295210833e-06,-3.193602396241565e-05,2.630465448918289e-05,-5.687859241453564e-06,7.319770117352634e-05,1.890687778055028e-05,2.7646424189329556e-05,1.9064347085212966e-05,7.864342791079166e-06,1.1226014695550454e-07,7.682933701230963e-05,1.5212910342004684e-05,2.1875830295544737e-05,-8.653617861586939e-07,-1.5214838889199006e-06,2.0612795247729412e-05,-7.830097906968907e-06,-5.2449768220897505e-06,-9.650836742131255e-06,-1.8164021025457912e-05,-6.737317873254844e-05
148,29.700000000000006,5.0102116440679145e-06,-3.143737116431713e-05,1.5209629731490875e-05,-1.5411675520027368e-06,3.847571949540328e-05,2.927023967801082e-06,3.2318013560989345e-05,2.726906726458915e-06,-4.870987223515864e-06,-7.145404181763336e-08,4.0821356012774587e-05,-3.8311204062920634e-07,-3.712931712142332e-06,-2.5594603839228584e-05,1.2079840585667204e-06,1.4881568680110274e-05,-4.040992763522936e-06,-2.7287485580005218e-06,-2.2500988124709495e-05,4.892109665570896e-06,6.89328207899258e-06
149,29.900000000000006,-2.1144771120569338e-05,-5.475178684464444e-05,1.451884832535454e-06,-1.3010875883569633e-05,-1.9651233722484404e-06,-2.8612639334602684e-05,1.4975129168417471e-05,-1.0481296449759263e-06,-1.1756042362038825e-05,4.5123553716088583e-07,7.040720286122668e-06,-3.9568301234121656e-05,-3.861913228834836e-05,-7.516374546154561e-05,-2.43815981017488e-05,-1.5755422021687013e-05,-2.5372594831573134e-05,-4.791455291322658e-05,-5.908900629855093e-05,-5.3866968335872725e-05,5.728232397510619e-05
150,30.10000000000001,-3.597773611542468e-05,-5.8997780090801645e-05,-1.3535079590477597e-05,-1.94598621784113e-05,-3.8477561326944884e-05,-3.6909429501345597e-05,-2.8763760311217933e-06,-7.265832898594268e-06,-2.57651955859465e-05,3.779895985737934e-07,-1.7143751155664238e-05,-3.797890852884636e-05,-4.2883421246986385e-05,-4.545213927929651e-05,-2.145447337080537e-05,-1.109430536820591e-05,-2.1953126168903885e-05,-4.020972367823448e-05,-4.089865188613374e-05,4.107724363285145e-05,0.00013432859748778802
151,30.300000000000008,-7.1542921411248616e-06,-1.863970954995979e-05,6.394629280894061e-06,5.115191180509707e-06,-1.0566127075483144e-05,-2.938707630884108e-06,2.2085789368428325e-05,6.929368794644446e-06,-1.3161089991903711e-05,4.862497455293924e-07,1.2158661953651266e-05,-1.136659604085181e-05,-2.118546330867327e-05,-3.682085301747283e-05,-1.1451891914210764e-05,-7.954761106493536e-06,-1.5815103897572793e-05,-3.417340033283137e-05,-4.77813727440988e-05,-4.9237963812228686e-05,0.00014207739952139785
152,30.500000000000007,3.1205799881156383e-06,-2.3577028373237873e-05,1.838526070885512e-05,1.5941205876069622e-05,5.863170377657483e-06,-8.965189144745793e-06,2.6878761329098945e-05,1.1600958166304238e-05,-1.1251774672868601e-05,3.6486715651856926e-07,8.536867946409401e-06,-2.0932856299110207e-05,-1.7675210058900815e-05,-5.204288580153283e-05,-1.2793661614357436e-05,-8.48950062024392e-06,-1.2511529110170116e-05,-3.482296121456496e-05,-4.3172114972201314e-05,4.143811078937012e-05,0.0002923523253273109
153,30.700000000000006,-2.9652719044806654e-05,-4.3516579076150964e-05,-2.289146749150513e-06,3.287891124319746e-06,-3.281522758011567e-05,-1.9922428260857956e-05,5.1184717910235145e-06,-5.641930694260281e-06,-1.9942111923940788e-05,2.795712831596124e-07,-3.2398590044862305e-05,-3.9940713616102375e-05,-4.371997692800693e-05,-4.0068657426140806e-05,-1.5592022382633984e-05,-1.3144686939334685e-05,-1.2885518708744005e-05,-3.228704928739289e-05,-2.8691500164261486e-05,-3.469501740452652e-05,0.00038770326991108327
154,30.900000000000006,-3.709724445326099e-05,-2.910170265581469e-05,-9.49090697958321e-06,-3.985727094098048e-06,-3.5182818952463986e-05,-1.5301751440825876e-05,-5.407871751832966e-06,7.987278969694174e-07,-2.195558662678924e-05,3.933201438594639e-07,-2.592600858978672e-05,-2.6685343746405363e-05,-4.6621109129494835e-05,2.0657272755656977e-05,5.708666240189965e-06,1.1133408079423152e-05,1.0377290444654588e-05,1.2967395533968178e-05,2.500092725326362e-05,4.973080019297079e-05,0.0003003660997485743
155,31.10000000000001,-2.536496110326216e-05,-7.059154436224486e-06,-1.3000340076727218e-05,3.85543674320819e-06,-3.3999527975599646e-05,6.58490469069481e-06,3.428957376413406e-06,-2.2563406440124518e-06,-1.4338829166360076e-05,3.320610513805089e-07,-1.2422952626297355e-05,-3.8343143011531545e-06,-2.479741548437372e-05,1.4753624870071838e-05,1.8801898244108487e-05,1.0659422948841903e-05,2.013382611271374e-05,3.2426273707944944e-05,2.352269677347537e-05,-5.110135058407052e-05,0.0001152452861289783
156,31.300000000000008,-2.039820350101254e-06,-1.1340351156741365e-05,7.05731260468288e-06,2.8745341995801848e-06,2.0123984281172318e-05,-1.4407721987150007e-05,1.4228727187862872e-05,1.5104650195049085e-05,-1.7173276650288493e-05,4.829691350155866e-07,3.11501162180744e-05,5.847760179807867e-05,-2.7113526507120782e-05,1.8372138266799895e-05,3.7452169015095796e-05,1.5990415033776712e-05,2.804009745098628e-05,4.972165233673037e-05,3.0841738829776633e-05,5.800847449460441e-05,-8.699779082613614e-05
157,31.500000000000007,-2.003733634449388e-06,-4.093482531743831e-06,2.9434270203701126e-06,-3.962258111191591e-06,1.3169089991903524e-05,1.0357606781571751e-05,3.5142532497723624e-06,1.3310156243997183e-05,-1.1547029619111146e-05,4.567242509051382e-07,3.272152865418749e-05,5.879910162843166e-05,1.5987134423262907e-05,1.8175301635971532e-05,3.282322758011548e-05,1.0810331032476983e-05,1.838198009834131e-05,4.0578590834752946e-05,2.4401900391175384e-05,-3.4829522435592564e-05,-0.00020805888000660644
158,31.700000000000006,-8.578077104116682e-06,-4.884109665571087e-06,-5.048140191261388e-06,-9.795183604738721e-06,3.5240950813137814e-06,1.9959953755482015e-05,-4.123008026368086e-06,6.7686188794679496e-06,-1.1166478799509642e-05,3.287804408667029e-07,1.9156204179599536e-05,2.4359252454495905e-05,2.8345194228770237e-05,7.736398981040731e-06,1.6147884338439405e-05,4.829691350155864e-07,6.391348670380255e-06,1.773898043763533e-05,1.0016423288135924e-05,3.690102644877639e-05,-0.0002813444382745195
159,31.90000000000001,1.1301326475275537e-06,1.704077819616819e-05,-1.8943378915467019e-06,7.185508769376223e-06,-1.791377192344174e-06,3.3315003713867743e-05,4.518183155660736e-06,7.587699000636099e-06,-5.240560615628858e-06,1.4557096140338122e-07,1.042555327240577e-05,1.4798165466663127e-05,3.320239044911499e-05,1.4225446577349067e-05,1.7574886823281298e-05,6.542004399360425e-06,1.4955824037316998e-05,1.7825853527587464e-05,1.539340700892774e-05,-2.4439513495050223e-05,-0.00028278077788159285
160,32.10000000000001,1.6393930126974855e-05,3.152410581664829e-05,6.706287279705636e-06,1.9480984620466333e-05,1.028215273975421e-05,3.740952107841632e-05,1.695163391432188e-05,6.568501638125781e-06,-2.023417297532224e-06,9.913770490028043e-08,2.6770501182143346e-05,5.858914255554807e-05,2.8026975008931054e-05,4.678550592687396e-05,3.500483357179649e-05,2.2823926734034677e-05,3.3768043408091614e-05,5.59384092603928e-05,4.2494467374815665e-05,2.4976007231091444e-05,-0.0002756066504858727
161,32.300000000000004,2.581912413313959e-05,1.8801898244108483e-05,1.9936989481885374e-05,1.3756319273874803e-05,3.636300632451219e-05,5.630247031177255e-06,3.1127151944477754e-05,9.566979647744498e-06,-5.674736799398341e-06,4.336732616557784e-08,2.0488132048204783e-05,3.20752483829677e-05,1.2043840585668052e-05,3.5057323340017385e-05,2.374905889892799e-05,9.189709438656804e-06,2.1265636739976816e-05,4.5604486141903784e-05,2.9162066246707945e-05,-1.7412761217796335e-05,-0.0002613688008559545
162,32.50000000000001,-7.623419444599126e-06,-3.644038891352406e-06,-7.735046917721252e-07,-7.66934799179241e-06,3.0713708304085483e-06,-1.1002448273819341e-05,6.929368794644445e-06,-3.742457206766587e-06,-5.838767325088642e-06,-4.8489768220991146e-08,-2.8042025998180606e-06,6.342139512673166e-06,2.467738495868238e-06,5.085665685885454e-06,1.5609864214175214e-05,4.9970892020126915e-06,1.6918827809183824e-05,2.4119767886988066e-05,1.1686254039663195e-05,6.37166500729742e-06,-0.00020852144608905304
163,32.70000000000001,-1.968294369335011e-05,1.7722490669413582e-06,-2.041451983792886e-05,-1.2003034480530183e-05,-1.6120200675356755e-05,7.044190162627656e-06,-9.536015374148043e-06,-1.0162611982284996e-05,1.5098002258368755e-06,-1.009795364418877e-07,-5.22857376952072e-06,5.236573769520531e-06,1.9116836853433865e-05,-2.748518936736076e-07,1.832620971960661e-05,7.946358053924317e-06,1.9628612093587606e-05,1.6269266927450222e-05,6.604588353777646e-06,-5.766680609437641e-07,-0.00017043683863427882
164,32.900000000000006,-3.9825095722479706e-06,1.6448754175753653e-05,-4.873763124719852e-06,-3.31004750558146e-06,-1.115697603827585e-06,2.1053027943216693e-05,1.001431773524394e-06,-3.5127513821364364e-06,8.273031154702926e-06,3.617521850069537e-08,1.5090959955020317e-05,2.994947585868512e-05,2.908718000286394e-05,5.283953355979537e-06,2.750415925262508e-05,1.5023391996168657e-05,2.8131576013390488e-05,2.8237754234443094e-05,1.2912697662516838e-05,-1.6669198227109453e-05,-0.00011276370580156871
165,33.10000000000001,-7.2067819093457585e-06,6.1748283764690565e-06,-1.0851626905836982e-06,1.1161269641801512e-06,6.9424912366996695e-06,9.330775690750463e-06,3.47488592360669e-06,-2.6172078005311164e-06,-5.533670547304681e-06,-1.665917467180084e-07,1.5134175689673338e-05,3.0192177948043035e-05,9.389826679998972e-06,8.33347009455343e-06,2.4592175800976137e-05,5.5646348209011335e-06,2.2059544484317876e-05,2.517940508294741e-05,1.4363232218928919e-05,1.463552289157482e-05,-8.419286883683196e-05
166,33.30000000000001,-5.36964002161438e-06,1.7591266248861341e-06,5.174242169758217e-06,9.363581795888523e-06,1.201103448052999e-05,-1.327927868605345e-06,1.1046534989471017e-05,-2.4105293381613364e-06,-5.947027472044241e-06,-4.8489768220991146e-08,9.261882869960536e-06,1.623318021179836e-05,-1.1173040020537256e-05,-3.7949469749874827e-06,3.5831460705622894e-06,-1.3036426792379084e-05,1.3522442055214685e-07,2.4775803274096553e-06,3.845508196014055e-07,-3.1247095754516384e-05,-7.390496098118896e-06
167,33.50000000000001,5.118471791023514e-06,1.370382950565391e-05,5.4760583370283704e-06,1.483555341726427e-06,1.6584205536775604e-05,9.809744825766141e-06,9.73757139446241e-06,6.535695532987721e-06,-8.482939399216308e-06,-2.2892334648032308e-07,1.1387718482906848e-05,-5.62552764169125e-06,-8.368118031233094e-06,-1.3889385525968651e-05,-9.601627584424163e-06,-1.6881302314559755e-05,-7.990847822145402e-06,-1.5733088634727643e-05,-3.712931712142331e-06,4.026037161491375e-05,0.00015006240551200176
168,33.70000000000001,-3.186056992059811e-05,-1.6740236062466096e-05,-1.0536601580858886e-05,-9.237479817391695e-06,-2.1280601013573652e-05,-1.5277083773308602e-05,-1.1569993892707786e-05,-2.190728433736332e-06,-1.010028038252268e-05,-9.769892592808166e-08,-3.866455612623183e-05,-5.7249214686943014e-05,-3.258886545466305e-05,-4.828330615271111e-05,-3.0003744369783898e-05,-2.753672526340176e-05,-1.9016979759047488e-05,-4.907065267602458e-05,-3.490497647741011e-05,-4.019332062566544e-05,0.00037350478760733084
169,33.900000000000006,-2.5105540518016577e-05,-2.276640213300915e-05,-6.330693263157358e-07,2.413923865709073e-06,2.2713269217857453e-05,-1.0401465663155565e-05,-4.529488286761399e-06,1.6706763183408255e-06,-5.815889767144717e-07,-2.373141387560193e-07,-2.559782136107866e-05,-4.0050929511633513e-05,-1.5980648551192547e-05,-2.868020729345434e-05,-2.6643515962354336e-05,-1.8593276293456687e-05,-1.4053352962995228e-05,-3.32973511483177e-05,-2.283718761371088e-05,4.893928981785136e-05,0.00048728159658521347
170,34.10000000000001,7.857781570051552e-06,9.183148217629191e-06,5.918940756392185e-06,1.2522809720683734e-05,3.165533023720053e-05,1.2155381343137459e-05,1.803751599439168e-05,2.907340304718246e-06,3.5109726392585567e-06,-3.109386093254739e-07,-4.1492529104785345e-06,-9.785341773197302e-06,1.3877701862885625e-05,1.6138042506897982e-05,-1.4575033123354113e-05,2.040305256893551e-08,-1.911876540062819e-06,-4.556048614190482e-06,9.015837081425083e-06,-3.27233704857291e-05,0.0006754620211295796
171,34.30000000000001,-8.279541547360334e-06,7.139327867528032e-06,-4.424824193638241e-06,6.250282418286595e-06,6.043517240264097e-07,2.0248647480696947e-05,4.777288297587686e-06,3.6814776703237537e-07,1.23948659106453e-05,-2.3876517802174116e-07,3.1927534194193714e-06,2.539920598737242e-05,3.340717625157295e-05,3.571344544277859e-05,8.556551609492238e-06,2.7406939621821713e-05,1.7282975576216292e-05,2.439205855963397e-05,2.9030841826155705e-05,3.0825335777207603e-05,0.0011220679334265644
172,34.50000000000001,-2.5128757146268124e-05,2.877814810093992e-06,-1.9125239906003084e-05,8.405556810204444e-07,-1.7688332500956043e-05,2.921127540441503e-05,-1.1602799997845843e-05,-3.6309164492971808e-06,2.0616075858243224e-05,-2.9781616727024975e-07,1.9697504914377535e-05,3.674027653359988e-05,4.252399286943992e-05,2.8630607343471365e-05,2.4726680832042185e-05,4.307841604627315e-05,2.7055914296844473e-05,3.611696053597674e-05,3.324970694691026e-05,-3.972099942733008e-06,0.0009904728038862627
173,34.70000000000001,-2.0270172975321394e-05,1.3237982812693447e-05,-1.8902158391064275e-05,-1.2885605424396726e-06,-2.7795893493992434e-05,4.007993803665442e-05,-1.206208546977869e-05,-1.0293923118489955e-06,2.629481265764147e-05,-4.2247936679487915e-07,1.3424977611980393e-05,4.4105247137094445e-05,5.534789936790772e-05,2.5973312827288488e-05,3.9525514859821205e-05,5.252657432603451e-05,3.655984295534056e-05,4.864889269871579e-05,4.066060609759809e-05,1.0626616843703847e-05,-0.0010464024937571696
174,34.900000000000006,1.6159784468894822e-06,3.0853599498557314e-05,2.7968089658684733e-06,9.399163802230573e-06,-4.130515577351605e-06,4.992385150397553e-05,6.838016409567692e-06,1.7082605980219214e-05,3.2996469050709935e-05,-3.9497270940988997e-07,2.1580701526629648e-05,5.8833169506844275e-05,6.749473832725692e-05,3.4740365893452746e-05,5.1326691030609975e-05,5.9148486648152e-05,4.46728558446466e-05,5.7919393301421825e-05,4.7040951926304747e-05,-2.8419588023597943e-05,-0.0014624047261668047
175,35.10000000000001,2.150184069697085e-05,3.380084951322968e-05,1.9723749798487984e-05,1.2788539172302022e-05,4.0644203045029065e-05,4.918363221246617e-05,2.550746613432802e-05,2.496288478903622e-05,3.32726712205069e-05,-4.0607631422584896e-07,4.4633425429817206e-05,6.347069100009146e-05,7.858774424770964e-05,4.819616844781056e-05,4.314730886706307e-05,5.546928195691853e-05,3.764244442489654e-05,5.226740609544384e-05,4.951169326384676e-05,2.3299615258536557e-05,-0.0010401004409601484
176,35.30000000000001,4.419701751582828e-06,3.0366050305274757e-05,1.712244205512973e-08,1.2440707742185865e-06,1.9887693608525566e-06,5.059101412288896e-05,1.6331598527212543e-05,1.3759599884388611e-05,1.9330076536831258e-05,-3.17499830353086e-07,2.7429903895418357e-05,3.8013153412956624e-05,6.568510309691053e-05,3.202603922526061e-05,1.9556438662283866e-05,3.428309925875917e-05,1.0554443412400114e-05,2.2259661725660044e-05,3.469317557298492e-05,-1.2199871111358541e-05,-0.000706537805747892
177,35.50000000000001,-2.0867244088834087e-05,6.04688456643062e-06,-2.551586918689724e-05,-1.4224007798376866e-05,-4.516344555408158e-05,1.5544252003899094e-05,-5.149839117189374e-06,-2.3367069300354282e-05,-5.9765529666684966e-06,-3.076579988116679e-07,-2.1661151833175147e-05,-4.16925596304748e-05,2.1741325264478692e-05,-1.8590500392252702e-05,-3.901886206172288e-05,-1.6848496209421695e-05,-4.15285291047845e-05,-4.881476505594771e-05,-2.7244750927673015e-05,1.3693987674112488e-05,-0.0003977929890725785
178,35.70000000000001,-3.977012186938446e-05,-1.5877435497335108e-05,-3.186385053111191e-05,-1.4489737249995155e-05,-7.396392525478477e-05,-2.648364928847002e-05,-1.834117399320344e-05,-3.561030773787841e-05,-3.2388748213320886e-05,-1.797141887732325e-07,-6.339379817930173e-05,-8.612514842946374e-05,-3.807732684426055e-05,-8.943856504840782e-05,-6.303621163329686e-05,-4.8821326276975306e-05,-5.8203872346460575e-05,-8.05645136085625e-05,-7.022074865853209e-05,-4.005553498408559e-05,-0.00018692846768718176
179,35.900000000000006,-2.6151235119292258e-05,-8.419472203506906e-06,-2.3281205629021788e-05,-1.6389273826152577e-05,-5.5984097713224696e-05,2.2279148580527704e-07,-1.77341979594856e-05,-1.773098043763552e-05,-1.4397627800953679e-05,-2.0835644210530833e-07,-3.807215357383493e-05,-3.926907170206431e-05,-7.586134044336446e-06,-6.697193483124447e-05,-2.215507298149414e-05,-1.1691691925037245e-05,-1.6878337147364585e-05,-3.317186779616462e-05,-3.710367949696115e-05,9.949967298242347e-07,-8.330085822039536e-05
180,36.10000000000001,-3.174911587878142e-06,1.6128200675356566e-05,-9.171867607115574e-06,5.397323684697027e-06,-3.496074685614482e-05,2.82664595764389e-05,-6.03888456643081e-06,-6.603149574805449e-06,4.20318145767163e-06,-2.3548456750793515e-07,-7.600455171002483e-06,1.0692229053979966e-05,2.1472315202346602e-05,-2.830438812363237e-05,1.3976120178299808e-05,1.818514346751295e-05,1.5406466362319237e-05,9.671959184186289e-06,-1.6133409833064698e-06,-4.565890445731901e-06,-1.4896532953707104e-05
181,36.30000000000001,1.3589008137670698e-05,2.4605298243031358e-05,-3.5554624074796424e-06,9.343898132805686e-06,-2.0086458786548252e-05,3.265263583339756e-05,-4.736482192449815e-06,-8.555199546172759e-07,1.4733941206989e-05,-2.4532639904935317e-07,1.0646300506786684e-05,3.618257274625286e-05,2.723962848561761e-05,1.432386489276325e-05,2.571742520721161e-05,2.889633679508966e-05,2.292234504944886e-05,2.710184284403775e-05,1.2243957827010222e-05,1.8214668962137206e-05,1.230300881625873e-05
182,36.50000000000001,2.317167144849812e-05,2.8423928881101582e-05,2.238095759901815e-06,1.3060829844947921e-05,-9.19155127019841e-06,3.461116031013977e-05,-3.2733299032923236e-06,2.7826771051936172e-06,2.0911330804485764e-05,-2.4204578853554716e-07,2.2466340188029823e-05,2.9837872012551986e-05,2.6055328090133627e-05,3.880049993627007e-05,2.0258489312238363e-05,2.906692854180757e-05,1.786364363715996e-05,1.770617433249727e-05,1.2378462858076268e-05,-7.249429846025238e-06,1.0524917917775858e-05
183,36.70000000000001,2.3932773087701122e-05,2.749223549518067e-05,3.2419625771264617e-06,1.4031890557034512e-05,-1.3905788578537683e-05,3.0927034703135585e-05,-3.0633708304087366e-06,3.619232786214155e-06,2.0514376932315232e-05,-8.129587335905149e-08,1.02755915187266e-05,1.0456025096985931e-05,1.5872313055279694e-05,2.1793815032699587e-05,9.471841942844124e-06,2.4109926055446647e-05,1.2099610964402758e-05,1.3096829844947073e-06,2.270815149387157e-07,-2.4597384958684255e-06,7.068475351995092e-05
184,36.900000000000006,4.670632965389653e-05,4.599203980317899e-05,6.107638949599761e-06,2.256204569090375e-05,-7.589351566186522e-06,2.9177270614666162e-05,4.592186158212554e-06,3.6977150838905924e-06,1.0924269159168018e-05,-7.643804625206948e-08,-1.3859694392342209e-06,-1.2315891163952569e-05,6.4390437001578965e-06,1.0696069920243322e-07,-3.1813466315783005e-06,1.1078710207971807e-05,-1.3827519173841418e-06,-1.193944110749333e-05,-1.2325543729502808e-05,7.700312265388864e-06,5.893291268419672e-05
185,37.10000000000001,5.624022542766295e-05,4.7818898238722865e-05,2.572718032310031e-06,1.0620055622676236e-05,-1.7160154208233268e-05,-8.54855160949243e-06,-1.4263461840195258e-06,-1.196366715436451e-05,-6.714690332274854e-06,-1.567499151765903e-07,-4.154493215735352e-05,-5.309596177646458e-05,-4.569818506783196e-05,-5.074048342755184e-05,-3.441944612136682e-05,-2.515828264089238e-05,-3.222799829814439e-05,-4.9398713727405184e-05,-4.7450031082204384e-05,1.5490808363498366e-07,5.983249394028056e-05
186,37.30000000000001,7.149169699069448e-06,1.525883888919797e-05,-5.044859580747582e-06,5.646650083746284e-06,-4.0134269636416926e-05,-3.903207121943083e-06,3.714283775461814e-07,-1.2422952626297354e-05,-7.7185571494995e-06,-1.9939785185606874e-07,-4.641007754932787e-05,-5.330592084934816e-05,-3.21295799827302e-05,-3.847756132694489e-05,-3.162108535309027e-05,-1.528364499433622e-05,-2.6391792194083456e-05,-3.824135736995085e-05,-2.541088965045544e-05,5.515425663194044e-06,0.00027501429876184596
187,37.50000000000001,-1.9627173314615406e-05,1.1568152061166176e-05,-1.3236544033721252e-05,3.921048953484311e-06,-7.0493039331178e-05,2.4756206326666433e-05,1.7906291573839435e-05,-1.759975601708328e-05,4.796885245017805e-07,3.3525494624159715e-08,-4.085272333894045e-05,-3.740808229944412e-05,2.3155268395929092e-05,1.3566043864074052e-05,-1.5890557939390332e-05,1.3762880494902415e-05,-6.973858562865532e-06,-1.5063844089911212e-05,1.1167917578481843e-05,2.5878175122388103e-05,0.0002628169888715152
188,37.70000000000001,3.2255595245574318e-06,1.0580688296510564e-05,8.13335285321126e-06,-1.5247644994337068e-06,-2.0362030069707957e-05,3.828216347508872e-05,3.395503820737856e-05,-9.3490205748611e-06,-5.930711135127928e-07,1.0241831541408648e-07,8.946944260635156e-06,-2.5909629164206687e-06,5.4294823392975966e-05,5.872036697610031e-05,-2.161202939112077e-06,3.0169213674446394e-05,3.8291918590977424e-06,2.12655500243241e-06,3.1143554997046784e-05,-5.930624419475213e-06,0.0001182404835280832
189,37.900000000000006,2.1162423686119383e-05,2.8298887149594593e-05,2.1509916045927915e-05,9.421686455181127e-06,-5.034639217223802e-06,5.4988230895999866e-05,5.0638141354693066e-05,1.9216430226469866e-06,1.1139843123123307e-05,-1.208760925048957e-08,3.52680394768657e-05,-2.9368149709722963e-06,8.544851025069773e-05,5.493675054639861e-05,-2.9201201020736215e-07,3.099195293811071e-05,4.312261757255681e-06,-2.8177666625193743e-06,2.5802090193933283e-05,-3.164676243922718e-05,3.4933417204457483e-05
190,38.10000000000001,8.536781230756687e-07,2.192503945325183e-05,1.5193226678921847e-05,1.5114492026590503e-05,-2.472852266358379e-05,5.188029405481473e-05,3.697648049059392e-05,2.2643406440122635e-06,8.759949461348212e-06,2.696427359654765e-08,1.8982331822367816e-05,-3.7194929331699447e-06,7.990326906374589e-05,3.1261656975543796e-05,7.060593215196687e-06,2.554683346049369e-05,8.451572073050445e-06,-4.414982362096824e-06,1.3474186769687484e-05,9.36030118537472e-06,-3.371834934359226e-07
191,38.30000000000001,7.939796832896705e-06,1.929398982117939e-05,2.058655036361897e-05,1.693523086175285e-05,1.008531610892585e-05,4.165463108328133e-05,3.64778276924954e-05,1.1764988691994544e-05,6.896562689506384e-06,6.633159976222007e-08,3.896453046196038e-05,2.3607992646834328e-05,7.217415069321887e-05,3.14748966589412e-05,1.617412922254985e-05,2.1987371053014145e-05,7.874184622620583e-06,2.218412096818979e-06,1.733218473392338e-05,-1.2295008816258914e-05,1.634144035875396e-05
192,38.50000000000001,-2.0214402596586683e-05,-1.0730157601173442e-05,-2.561437421796414e-06,-9.88704069912529e-06,-1.64154556215993e-05,2.28895389443108e-05,8.674653587989255e-06,1.6672695304995651e-06,1.2243871111357504e-06,-1.27224420552336e-07,2.706903673889969e-05,4.0417840919576454e-05,5.679136799398238e-05,1.0144367098174358e-05,1.0830014695559819e-05,1.1827320291756856e-05,-5.287624758769229e-06,-1.931560203145655e-06,2.0842437983695835e-05,2.8568275743709053e-05,6.38807673143172e-05
193,38.70000000000001,-3.8320092022282195e-05,-3.748353634126165e-05,-1.8265719951385904e-05,-2.327849281648152e-05,-2.210075364202516e-05,1.3195248160361254e-06,-1.6815690104283635e-05,-1.5752772297810482e-05,-1.1770111134049951e-05,1.2866319952453476e-07,6.273246691883237e-06,1.6715429957327843e-05,1.2240677216496414e-05,-1.4565191291812692e-05,-1.8957928769798976e-05,-1.1904616165116e-05,-2.356718654169645e-05,-2.2743753302731143e-05,-5.930711135127928e-07,-3.140456505917907e-05,0.00022920713415757236
194,38.900000000000006,-1.3306887893776898e-05,-3.6639749090901496e-06,3.443530857734352e-06,3.1346487601267685e-06,-1.6659545661559212e-05,3.1603889349274e-06,1.7812983440187146e-05,-7.660137046888262e-06,-9.741873683889372e-06,1.133957429025913e-07,-4.938113561721432e-06,-6.67235783891401e-06,1.2124404809247481e-05,-4.5610562456139087e-07,-2.9198228311317057e-05,-1.4973564212117817e-05,-2.2640918780856063e-05,-3.2512275816898424e-05,-2.8821170995209534e-06,1.2172667636998666e-05,0.00042833981381361634
195,39.10000000000001,-1.2747733067164155e-05,4.344247709765289e-06,3.3141360084301944e-06,4.514839456483204e-06,-1.6533557600096317e-05,2.3040447027945886e-05,2.1085203161717483e-05,-5.553354210387517e-06,5.124946296398408e-07,4.99285471931899e-08,6.9260881841306396e-06,-2.374442622509469e-06,5.439652231890396e-05,1.3313436854510988e-05,-1.910555624292025e-05,7.615016392029906e-06,-1.3646620347947008e-05,-3.1539070090245115e-05,1.063973928575907e-05,-1.3649900958460814e-05,0.00012980463558924946
196,39.30000000000001,-2.161202939112077e-06,1.7515898922696517e-05,5.810680609436587e-06,1.252609033119754e-05,-7.5709296763782285e-06,3.77802300664764e-05,1.5996976254804323e-05,4.664793667938385e-08,1.1518942903459086e-05,2.697294516181942e-07,1.4336987334818471e-05,2.038971373279061e-05,6.547514402402694e-05,-6.232440586745367e-06,5.334992084934712e-06,2.2394166756726093e-05,7.04090955211385e-06,-1.487684929062427e-05,1.619053227511888e-05,2.3266809153398504e-05,-6.808507121404436e-05
197,39.50000000000001,2.133781017128055e-05,3.284947246422593e-05,2.1173779645590253e-05,2.157729473878839e-05,2.240400858826752e-05,3.5099971276696865e-05,2.0192877101962243e-05,9.147061501977324e-06,1.8040796604905483e-05,2.566070095629701e-07,2.4575772748407107e-05,1.873956664434617e-05,5.0705835490872175e-05,-3.0905912261080557e-05,7.615016392029907e-06,2.4395339170147774e-05,7.549404181753784e-06,-2.0647443184409084e-05,1.1358192988282592e-05,-1.926302554758294e-05,-0.00011601479082075051
198,39.70000000000001,2.1491998865429434e-05,2.6078292363730275e-05,1.9595805988449546e-05,1.5485201014650585e-05,2.420834437086083e-05,2.3109339848735804e-05,1.648906783187523e-05,1.1312264441089309e-05,-1.0490759749318319e-06,2.0739785185587958e-07,2.356862532066865e-05,-1.8823510454385648e-06,2.2203891346925344e-05,-2.6841235834474873e-05,-1.9928989481885563e-05,-1.5542899940579612e-06,-2.2340238209532997e-05,-3.598757794696611e-05,6.037042734889203e-06,2.845017376521203e-05,-8.427488409967711e-05
199,39.900000000000006,4.370177150557104e-06,9.865704470492028e-06,-3.805545870493625e-06,1.0563906711959168e-05,-2.6794132229659763e-06,6.223469736202603e-06,-6.137641952152618e-07,-1.456815645900787e-05,-1.2103534721847358e-05,6.835043700148535e-08,-3.445183423284778e-06,-4.30400073103569e-05,-7.599004131736761e-06,-4.7731154167772076e-05,-4.1305763033164314e-05,-1.8638321599357794e-05,-3.576519040732829e-05,-4.89377248615517e-05,-5.4786572325347036e-06,-3.35740580274245e-05,-2.3029631665067343e-06
200,40.10000000000001,-4.858512231998128e-05,-3.354680372469441e-05,-3.0226825884722707e-05,-7.4462664768536e-06,-4.177785550383375e-05,-2.5187808135516637e-05,-2.400678835054646e-05,-3.0249790158319344e-05,-1.9843693608526605e-05,-3.2086715651960975e-08,-4.904440779191411e-05,-6.597891926418087e-05,-4.3759344254172605e-05,-6.322976765361143e-05,-3.8812183599353094e-05,-1.812793430980605e-05,-2.9938132159507778e-05,-4.4192384841995e-05,-1.2068646690806303e-05,1.698444001945994e-05,4.1917079924385813e-05
201,40.30000000000001,-8.630566872337577e-06,6.634027132749183e-07,-6.199634481607307e-06,1.5373660257181177e-05,-1.7278256186730283e-05,-5.120313622565121e-06,2.3952456750783958e-05,-2.1277320403059844e-05,-7.456108308395017e-06,-1.4362747312136615e-07,-3.503620089796236e-05,-4.544885866878271e-05,-3.1155238660129815e-05,-3.29431713901541e-05,-3.220503402454774e-05,-1.3125003276251846e-05,-2.180877930629642e-05,-2.2730630860675915e-05,2.612085358475703e-06,-2.8041939282527887e-05,0.00013203545073863757
202,40.50000000000001,-2.0270172975321394e-05,-1.819354652008217e-05,5.006931033554108e-06,7.726557149499312e-06,-6.163547765955439e-06,-2.1953126168903885e-05,2.2591003387554456e-05,-6.845914752827095e-06,-1.3128283886765651e-05,-6.161221027621528e-08,-1.8416628035020983e-05,-2.083443798369603e-05,-2.705119490735846e-05,-2.2897941996880027e-05,-1.6149726169981013e-05,-3.1486667037676944e-06,-1.4909655395762327e-05,-7.738240812582336e-06,1.2686840246374039e-05,6.0721539389522e-05,0.00026631083906871855
203,40.70000000000001,-4.808655623753548e-06,-6.052007008486036e-06,2.0642234026700954e-06,1.752565403858522e-06,5.354589032364832e-07,-6.084813113624097e-06,4.534523119566039e-06,2.3004273596641296e-06,-1.1091024757692106e-05,-1.9283663082845664e-07,-7.488914413533079e-06,8.907576934469485e-06,-1.751446014372432e-05,4.6660842727349334e-05,1.765696517479018e-05,1.8247475067275266e-05,1.4838920743430793e-05,2.9267045783149732e-05,5.9612693035855555e-05,-5.927335137396133e-05,0.00030496627275289513
204,40.90000000000001,3.849521389249493e-05,1.9579402935880516e-05,2.0351608179899473e-05,1.7327137640825216e-05,2.8334279889945466e-05,9.428121498881286e-06,9.730568552788711e-06,1.8993813959166137e-05,1.873380194895802e-06,-1.343534395534914e-07,7.243424162677645e-06,3.406790382678623e-05,-5.81327950494292e-06,8.970207413650216e-05,4.1777086179575496e-05,3.076994393045526e-05,3.0235835303342145e-05,5.495605567749907e-05,8.491118410173451e-05,3.576353784177786e-05,0.0005228802583344875
205,41.10000000000001,3.954519852290404e-05,1.9372724473510734e-05,2.2531952398305953e-05,2.1695396717285404e-05,2.525157851425115e-05,6.52913431196011e-06,4.278635499489169e-06,2.216452402075967e-05,-2.3744426225094703e-06,-1.1738258901091788e-07,-1.0228310908213834e-06,2.393277308770113e-05,-1.85380106240318e-05,4.5699623846804155e-05,3.5004833571796494e-05,-8.522393441034698e-07,1.4415721987149814e-05,4.149716177861863e-05,4.96888462315923e-05,-5.434915499273848e-05,0.0004601785173820863
206,41.30000000000001,1.0387132276196006e-05,-3.7916663644736774e-06,-2.2169733178467803e-06,1.263754437301423e-06,-3.68996743854569e-06,-2.081147371009939e-05,-2.338019174240951e-05,2.933585188828695e-06,-2.050637693231542e-05,-1.764335782594265e-07,-2.8261740186952887e-05,1.007866817224552e-06,-5.494294549573738e-05,7.519791971476812e-07,2.2528671787792138e-05,-1.6402333179544074e-05,8.002128432659018e-06,2.5579639565631758e-05,2.2269503557201467e-05,5.813641830464285e-05,0.00039547503621828976
207,41.50000000000001,3.747089880599874e-07,-6.7376546058714955e-06,-3.7391765962527804e-06,-1.3082442055225083e-06,-1.7596475406569474e-05,-2.416425765520915e-05,-2.450544114864498e-05,5.518706273707851e-06,-2.282576856557629e-05,-1.8964273596736827e-08,-3.768365358260383e-05,1.4212237419641125e-06,-6.081523831545017e-05,-3.296294176888966e-06,2.369328852019328e-05,-1.5093369584535464e-05,1.3316717465024794e-05,2.3483329447309702e-05,1.9963234365995823e-05,-4.7135092472879006e-05,0.0001623909398228849
208,41.70000000000001,-6.163547765955439e-06,-1.2370462858076457e-05,-1.8987540980075948e-06,-3.220840135071426e-06,-2.28323297866039e-05,-1.988962215571989e-05,-2.2563319724471806e-05,1.0774244316825115e-05,-1.613660372792579e-05,4.992854719318989e-08,-3.950767302827998e-05,-2.3613201804542457e-06,-4.8640892698715976e-05,-4.152533520992341e-06,1.72862561867301e-05,-1.0031387561732757e-05,1.3913788578537492e-05,1.4753624870071838e-05,1.351355409585316e-05,4.1989253355689544e-05,-0.0004605182620965498
209,41.90000000000001,-1.2859652356615921e-05,-8.049457190747822e-06,-8.252161067302796e-06,2.6970657885160243e-06,-2.253152303795338e-05,-1.2003791544494905e-05,-2.356113002997866e-05,7.529783607334676e-06,-1.2785649354064103e-05,3.617521850069537e-08,-3.7386821419768106e-05,-1.7817853527587653e-05,-3.737073381051771e-05,8.765556810195942e-08,6.7672309288659545e-06,-8.390514506856195e-06,8.919753046568803e-06,9.28011549377765e-06,1.4424932932053961e-05,-4.590038423507712e-05,-0.0006234680789772074
210,42.10000000000001,-1.8390383150910534e-05,-6.9574555102965e-06,-6.8229504792304524e-06,-4.510120066997199e-06,-1.7038771619222448e-05,-2.329161525853675e-05,-1.5234435836629128e-05,2.454616053813014e-06,-2.5109073483185292e-05,7.617343130363818e-08,-3.637140937708141e-05,-3.3061273368651115e-05,-5.5704047134940374e-05,-8.555199546172756e-07,-2.968233125508362e-06,-1.5385343920264205e-05,9.257648387266816e-08,1.2368621026534852e-05,1.366774279000204e-05,5.221163571670914e-05,-0.0004940100148319957
211,42.30000000000001,-2.037515251176318e-05,-1.5214752173546291e-05,-1.508361446864677e-06,-2.9747943465359744e-06,-2.5384644766345e-05,-3.463596641527801e-05,-1.4883410511651881e-05,4.0086715651771754e-08,-4.138090163166322e-05,2.4348456750774596e-07,-5.5339899367907906e-05,-5.602226635477955e-05,-8.409773113193161e-05,-2.5709425207211794e-05,-2.0289856638404223e-05,-3.835289812742025e-05,-1.6235022043339965e-05,-1.2731330014595121e-05,-1.6074272128163474e-05,-6.078243221031211e-05,-0.0003076680570372991
212,42.50000000000001,-2.4702277779473345e-05,-1.9338479589400477e-05,-5.271221706200197e-06,-2.2244884110542866e-08,-3.491153769843772e-05,-3.091247348210817e-05,-2.5302629503499847e-05,-7.705434707444276e-06,-4.4198946063022606e-05,2.073978518558796e-07,-6.592642949595997e-05,-6.951869800857758e-05,-9.224348703771199e-05,-3.513133860286273e-05,-2.521077240911328e-05,-4.5124078227915916e-05,-1.6228460822312355e-05,-1.7609597848624695e-05,-2.0909892025513563e-05,6.660367404077622e-05,-6.646444962022417e-05
213,42.70000000000001,-2.189079456914157e-05,-1.6533557600096317e-05,-6.865598415909933e-06,1.9427540980065529e-07,-2.0086458786548256e-05,-2.187111090605874e-05,-2.963303538172382e-05,-8.574796493602875e-06,-3.939285166029677e-05,2.3036212545252178e-07,-4.5507909658031216e-05,-5.108166692098766e-05,-7.603070987848258e-05,-2.994469338053538e-05,-1.759975601708328e-05,-4.382495646444872e-05,-9.890321309639096e-06,-5.1235942330789275e-06,-1.4348670997901499e-05,-4.421206850507784e-05,0.00010970761558167371
214,42.90000000000001,-2.6559860394252285e-05,-2.6456899695049756e-05,-1.5575240798082594e-05,-1.3541766988832668e-05,-3.6881670489305706e-05,-2.4342987839547854e-05,-3.852260663284599e-05,-1.3065573755020975e-05,-3.010235195118926e-05,2.8392440095677807e-07,-5.365139437191743e-05,-1.113506064497358e-05,-3.970343715182498e-05,2.0518919316103578e-05,2.2723529043055975e-06,-1.5449757445929512e-05,1.0026580562995978e-05,1.953114010812933e-05,9.402988583728931e-07,4.704095192630475e-05,0.0001915559458226028
215,43.10000000000001,-8.597760767199518e-06,-1.9354882641969507e-05,-9.962494740942826e-06,-1.4368354660984333e-05,-3.1421054827400816e-06,-8.112230411156225e-06,-1.4729221817503e-05,-8.473097567674888e-06,-2.3114462290791225e-05,1.9755602031446145e-07,-5.041578970233776e-06,1.4842201353944599e-05,1.4402599545094593e-05,4.848486217302547e-05,1.5288364383822222e-05,-2.5612210277066982e-09,1.6699026904758817e-05,3.204900349885725e-05,1.1302422609547891e-05,-3.7014409037787394e-05,7.054040665734346e-05
216,43.30000000000001,2.418538009726419e-05,1.9986111923939743e-06,5.387481853155609e-06,8.609041377713135e-06,-2.2564273596651713e-07,-3.004319841160228e-06,1.0226382361019511e-05,-2.0365397395874484e-06,-2.3009482754349428e-05,2.041172413420736e-07,-1.0539882191372691e-05,-1.0864662632239489e-05,7.854500959537748e-06,1.269012085688784e-05,8.477816957160894e-06,-9.109536007353257e-06,1.1345070546227367e-05,5.403884905724638e-06,-7.095241151876353e-06,4.996769812526582e-05,-8.852983593608354e-05
217,43.50000000000001,2.150512130748466e-05,7.920113169813866e-06,2.923743357287276e-06,-3.916329563998307e-06,1.9953305818801685e-06,2.736748558000333e-06,-1.9932270092399372e-05,6.916246352589219e-06,-1.963701514615683e-05,1.5162747312117702e-07,1.5750930466268873e-05,7.897148896217225e-06,9.612908194937781e-06,2.434932390730177e-06,2.6596628824911623e-05,2.395565064564505e-06,2.8240214692328447e-05,2.348661005782351e-05,1.1473014356265803e-05,-3.33794925884903e-05,-0.000338620617235059
218,43.70000000000001,6.0905253578295135e-05,5.490501694854391e-05,6.2437211972589835e-06,-1.0490759749318319e-06,3.314800802098228e-05,1.6715429957327847e-05,-2.18514272429759e-05,9.291408364584789e-06,-1.1058218652554043e-05,8.273465233125026e-08,3.084501944029044e-05,2.467091045330748e-05,1.9398969357621183e-05,1.3506992874825543e-05,2.9099734646945633e-05,-3.775263311904647e-06,2.6432598299221324e-05,2.568461910207355e-05,5.892695872281737e-06,2.65802257723426e-05,-0.00027969101057556125
219,43.90000000000001,3.432852309664264e-05,9.070976573522517e-06,7.700312265388862e-06,-3.860243741944969e-06,4.0593038138746436e-05,6.477653962358846e-06,-1.2872522444016234e-05,1.5605763451032953e-05,-8.126677715149716e-06,1.680936143539342e-07,3.997527394353127e-05,2.799644009568717e-05,2.3675308251031074e-05,1.44345854976042e-05,2.712127415246568e-05,-9.471601848482738e-06,2.0753798411159346e-05,2.638446164879759e-05,7.9705841007955e-06,-4.4610157973195446e-05,-0.0001998491521958068
220,44.10000000000001,2.598971587985751e-05,6.939210626185862e-06,5.600721536553001e-06,4.2063753525327174e-07,1.8044077215419292e-05,-4.047553984550548e-06,-7.971164159062566e-06,7.624858223571324e-06,-1.8318209719606803e-05,2.1395907288349167e-07,1.746668976498943e-05,9.816219331141033e-07,-4.1263753525346087e-07,-2.4105293381613364e-06,1.2358779194993432e-05,-2.3203038774663986e-05,9.872076425528459e-06,9.396387901026585e-06,-1.0231504803074925e-05,3.66418582181857e-05,-0.00018138095530833575
221,44.30000000000001,3.895796924093276e-05,1.960892843050477e-05,5.65977252580151e-06,-9.831270320390588e-06,1.9225097000389464e-05,-2.0467009606149754e-05,-1.5375502088722785e-05,3.6028297336451255e-06,-2.780901593604766e-05,2.762906726458063e-07,-5.622247031177444e-06,-2.547322125021776e-05,-3.659449089202022e-05,-3.284803368525373e-05,1.7033562461514317e-06,-2.920655601492903e-05,6.365103786269806e-06,-4.542926172135259e-06,-2.401006896106027e-05,-2.8058342335096917e-05,-0.0002014681334843701
222,44.50000000000001,3.417155850128975e-05,2.411968117133535e-06,-1.0917239116113101e-06,-2.1057519498634837e-05,1.5859190613224472e-05,-3.907463244045759e-05,-2.6171991289658442e-05,-2.472860937923651e-06,-3.2552778739011185e-05,1.5490808363498302e-07,-2.9577265002989108e-05,-2.1438070318236338e-05,-5.010732559838728e-05,-3.97373157642464e-05,3.5765848495346766e-06,-1.9925708871371754e-05,1.1804356018160212e-05,-2.4072487276475303e-06,-2.122483063483895e-05,3.431918597441103e-05,-0.00016378047990176634
223,44.70000000000001,3.638268998759503e-05,1.340529394889756e-05,4.596854719328354e-06,4.239268173323496e-06,5.079104464857842e-06,-3.243467676051417e-05,2.1013029730413756e-05,-8.594480156685712e-06,-3.510837432926609e-05,1.3194381003834082e-07,-3.797562791833256e-05,-3.689958766980418e-05,-7.043070773141566e-05,-3.637468998759522e-05,-1.550344589876122e-05,-3.933380067104826e-05,-8.279541547360332e-06,-2.308165618565316e-05,-3.74015210784165e-05,-3.927474968179974e-05,-7.254342090230676e-05
224,44.90000000000001,1.1017577292820308e-05,8.964798352469909e-06,4.849587906218873e-06,-2.1800900765554532e-07,-1.1392462392979898e-05,-3.0932472588509634e-05,-9.77344164274188e-07,-2.0835644210530838e-07,-2.8451763242098733e-05,1.5522352695361824e-07,-3.2451142901746925e-05,-2.1119030945768702e-05,-4.2946699176704616e-05,-2.62509782966447e-05,-9.336465930779417e-06,-3.6601746088348834e-05,-1.6658938401910933e-06,-1.263120830526031e-05,-3.178511587878057e-05,2.6770564270807074e-05,6.200947083252052e-06
225,45.10000000000001,1.2056963027723277e-05,1.71779960397745e-05,1.1253213451840801e-05,3.6487582808384105e-06,1.1637044881956105e-05,-4.7922525711845175e-06,-4.736482192449814e-06,9.304530806640015e-06,-2.653285844617711e-05,8.92958733588623e-08,5.34483391647613e-06,1.7683210058900626e-05,-5.796119388409164e-06,3.3594171050859895e-05,-2.315391633260961e-06,-3.0443346178633912e-05,1.7722490669413584e-06,3.02872289372907e-06,-1.0323361897461493e-05,-2.474820632666663e-05,0.00021466418774987022
226,45.30000000000001,-6.934491236699858e-06,-1.924998982118043e-06,8.346592536608652e-06,1.3133003276251658e-05,1.712878688206741e-05,1.0013142677622118e-05,5.026614696636945e-06,8.76979129288963e-06,-2.1136254150966185e-05,7.280610513711455e-09,2.3667043636082834e-05,4.803869914314787e-05,8.22520994759783e-06,2.0848999204723452e-05,-9.900163141180513e-06,-4.226010524936324e-05,-1.0900749347891356e-05,-1.0851626905836982e-06,-2.5191088746030445e-05,2.898819388947622e-05,0.0005892344543847019
227,45.50000000000001,-1.5336134762557115e-05,-1.9787923229791904e-05,1.1850197849700783e-06,2.516947653575328e-06,-7.5578072343230055e-06,-1.903010220110271e-05,-9.506576595176507e-07,7.815046917719358e-07,-1.9761678345681455e-05,-5.833159976240924e-08,-3.863839795777409e-06,1.0337923118488914e-05,-8.692898472099892e-06,-4.493708342862897e-05,-2.8406087049560355e-05,-6.112361570374795e-05,-3.1378320175068624e-05,-3.328435488358993e-05,-6.363984396783716e-05,-1.7586633575028054e-05,0.0004726940464922563
228,45.70000000000001,1.9562999883311486e-05,-9.463841942844311e-06,8.700811756446987e-07,-1.1714340755315249e-05,-1.1432208251127936e-05,-4.166631474636435e-05,-1.2226115995468992e-05,-4.116446805340475e-06,-2.8671816501178644e-05,-1.3706625209375409e-07,-2.0742580889309458e-05,-2.1638187559578507e-05,-3.801171463398443e-05,-1.7822837532022085e-05,-2.8064903556124528e-05,-4.457293566159651e-05,-2.2920906270476664e-05,-3.895981107247437e-05,-4.669549066402899e-05,1.010171916149488e-05,-0.00016409213790057796
229,45.90000000000001,2.0911456981813214e-05,1.9592273023280828e-05,-2.341573428707683e-06,-1.3312715677828776e-06,-7.650484481338026e-06,2.6657951006054307e-05,-1.3995437569693804e-05,5.863714548642037e-07,1.6771113620409834e-06,2.9740174800537393e-08,6.87984419361872e-06,1.548993266443011e-05,4.247850594289272e-05,3.3141257533963474e-05,5.686143587239413e-06,-5.333868749281148e-06,6.29747273875442e-06,-2.1740174800726514e-08,1.908772935246671e-06,-1.1302371781177687e-05,-0.0003024945342570269
230,46.10000000000001,1.699428185100136e-05,2.265989620834438e-05,-3.368467608192698e-06,4.760885245018656e-06,-4.713517918853173e-06,4.026037161491377e-05,-1.1451891914210768e-05,-5.753471451729686e-06,5.515425663194044e-06,-6.489282079002132e-08,2.100646850938614e-05,2.8797918479675473e-05,6.013102949703691e-05,5.263155386247632e-05,5.895976482795544e-06,-1.9774887503389396e-06,5.79099694635375e-06,3.6028297336451255e-06,1.3792405989526668e-05,-1.1704585639426553e-06,-0.00021893738447038724
231,46.30000000000001,1.3621727527156038e-06,1.097108094765348e-05,-1.1031973768443596e-05,2.9073403047182464e-06,-2.555523651306291e-05,2.170851915934064e-05,-1.3305436854511177e-05,-1.0733438211687246e-05,-1.0349606781571942e-05,-6.161221027621528e-08,6.338772186506637e-07,8.743546408779182e-06,2.31585490064429e-05,4.720214346212733e-05,-3.338942113568444e-06,-1.9459862178411298e-05,-3.6112327862143455e-06,2.1987284337361423e-06,7.647822497167967e-06,-1.6494276989583351e-06,-0.00011838995283274607
232,46.50000000000001,-1.542143063591607e-05,-5.655053136315504e-06,-1.2396707742186904e-05,-1.4184640472211194e-05,-3.681101118593142e-05,2.6088047479618973e-06,-1.781955692150828e-05,-6.199634481607306e-06,-1.970590796694675e-05,-1.2394381003852995e-07,-1.2094891574916752e-05,3.376467608192509e-06,9.585709438647484e-08,4.745146986117658e-05,-5.809241830464389e-06,-2.2418972861864345e-05,-4.972686149443848e-06,4.905232107626122e-06,9.186428828142997e-06,-1.0470989370582766e-05,-5.4805159854157514e-05
233,46.70000000000001,-3.34844721249321e-05,-1.9702627356432945e-05,-3.254949812849737e-05,-9.700045899838347e-06,-5.3338726954486215e-05,-2.3859160877425198e-05,-3.1263498807085414e-05,-3.08206163877216e-05,-2.6519736004121887e-05,2.368366308274162e-08,-3.1099468281395114e-05,-2.838640338647752e-05,-3.435055330057689e-05,9.41607156410942e-06,-2.975769858124844e-05,-3.178511587878058e-05,-2.0158632217851983e-05,-2.2327115767477773e-05,-1.6549960652665347e-05,1.9950111923940595e-05,-5.0963564942490656e-05
234,46.90000000000001,-2.040795861690124e-05,-1.737705303412683e-05,-2.905665734991359e-05,-1.7582974432531885e-05,-4.603552015278045e-05,-2.8397065370647385e-05,-3.060750288165166e-05,-3.2116520629338715e-05,-1.763767230398323e-05,-7.322052440199049e-08,-2.4539256672402672e-05,-2.6965268147362235e-05,-5.219707449568173e-05,2.961807110812698e-05,-2.58680931964853e-05,-1.0147281436999327e-05,-1.5761857065387174e-05,-1.6402143913552895e-05,-1.901155413396696e-05,-3.2270961678142495e-05,0.00019737644284939575
235,47.10000000000001,-2.3619676309917352e-05,-9.165306386087963e-06,-1.9988040471134072e-05,-6.642516900971123e-06,-2.5177966303975214e-05,-4.195181457671819e-06,-3.187697297316715e-05,-1.602506297045638e-05,5.731945957105242e-06,9.58570943864744e-08,-6.655639343026346e-06,8.681214809016868e-06,-1.5861032444766078e-05,5.167033498193115e-05,-3.83103369063935e-06,1.306402373980901e-06,-2.276024307095289e-06,2.0606234026701805e-05,1.243423323681097e-05,3.85971020844141e-05,0.0005754198035110645
236,47.30000000000001,-4.720079139880785e-06,2.325368671134328e-05,-3.4406410394964304e-06,1.4245130240431902e-05,-5.67473679939834e-06,2.9490127298088544e-05,-1.7402919386254916e-05,1.9034734874935995e-06,1.2860712603605754e-05,-2.880610513815494e-08,1.982544872441597e-05,4.508943029123623e-05,1.1443488861641549e-05,5.439324170839015e-05,1.936288264196932e-05,1.0334642507975109e-05,1.3762880494902418e-05,4.834051531041802e-05,3.3551523114180416e-05,-4.328365572967072e-05,0.00027717950170095797
